         ID: 

    Comment: 

Scan Type: Normal
Start Angle: 5 deg.
Stop Angle: 100 deg.
Num Points: 4751
Step Size: 0.02 deg.
Datafile Res: 1600 
Scan Rate: 10.000000
Scan Mode: Continuous
Wavelength: 1.540562

Diffractometer Optics:
		Detector:
			 Type: Fixed Slits
			 X2 Configuration: No
		Tube: 
			 Type: Fixed Slits
			 X2 Configuration: No


Axis[0]
	 Selected   : no 
	 Iterative  : no 
	 Start Angle: 0.000000 
	 Stop Angle : 0.000000 
	 Step Size  : 0.000000 
	 Oscillating: no 

Axis[1]
	 Selected   : no 
	 Iterative  : no 
	 Start Angle: 0.000000 
	 Stop Angle : 0.000000 
	 Step Size  : 0.000000 
	 Oscillating: no 

Axis[2]
	 Selected   : no 
	 Iterative  : no 
	 Start Angle: 0.000000 
	 Stop Angle : 0.000000 
	 Step Size  : 0.000000 
	 Oscillating: no 

Axis[3]
	 Selected   : no 
	 Iterative  : no 
	 Start Angle: 0.000000 
	 Stop Angle : 0.000000 
	 Step Size  : 0.000000 
	 Oscillating: no 

Axis[4]
	 Selected   : no 
	 Iterative  : no 
	 Start Angle: 0.000000 
	 Stop Angle : 0.000000 
	 Step Size  : 0.000000 
	 Oscillating: no 

Axis[5]
	 Selected   : no 
	 Iterative  : no 
	 Start Angle: 0.000000 
	 Stop Angle : 0.000000 
	 Step Size  : 0.000000 
	 Oscillating: no 

Axis[6]
	 Selected   : no 
	 Iterative  : no 
	 Start Angle: 0.000000 
	 Stop Angle : 0.000000 
	 Step Size  : 0.000000 
	 Oscillating: no 

Axis[7]
	 Selected   : no 
	 Iterative  : no 
	 Start Angle: 0.000000 
	 Stop Angle : 0.000000 
	 Step Size  : 0.000000 
	 Oscillating: no 

Axis[8]
	 Selected   : no 
	 Iterative  : no 
	 Start Angle: 0.000000 
	 Stop Angle : 0.000000 
	 Step Size  : 0.000000 
	 Oscillating: no 

Axis[9]
	 Selected   : no 
	 Iterative  : no 
	 Start Angle: 0.000000 
	 Stop Angle : 0.000000 
	 Step Size  : 0.000000 
	 Oscillating: no 




	   Deg.      CPS  	    ESD   

Range 0
   5.000	    133.33	    33.333
   5.020	    183.33	    39.087
   5.040	    233.33	    44.096
   5.060	    266.67	    47.140
   5.080	    216.67	    42.492
   5.100	    200.00	    40.825
   5.120	    225.00	    43.301
   5.140	    241.67	    44.876
   5.160	    158.33	    36.324
   5.180	    158.33	    36.324
   5.200	    316.67	    51.370
   5.220	    158.33	    36.324
   5.240	    250.00	    45.644
   5.260	    200.00	    40.825
   5.280	    200.00	    40.825
   5.300	    183.33	    39.087
   5.320	    141.67	    34.359
   5.340	    166.67	    37.268
   5.360	    208.33	    41.667
   5.380	    250.00	    45.644
   5.400	    150.00	    35.355
   5.420	    208.33	    41.667
   5.440	    200.00	    40.825
   5.460	    233.33	    44.096
   5.480	    208.33	    41.667
   5.500	    300.00	    50.000
   5.520	    208.33	    41.667
   5.540	    133.33	    33.333
   5.560	    216.67	    42.492
   5.580	    225.00	    43.301
   5.600	    225.00	    43.301
   5.620	    216.67	    42.492
   5.640	    250.00	    45.644
   5.660	    241.67	    44.876
   5.680	    258.33	    46.398
   5.700	    141.67	    34.359
   5.720	    183.33	    39.087
   5.740	    200.00	    40.825
   5.760	    225.00	    43.301
   5.780	    216.67	    42.492
   5.800	    241.67	    44.876
   5.820	    141.67	    34.359
   5.840	    183.33	    39.087
   5.860	    175.00	    38.188
   5.880	    150.00	    35.355
   5.900	    225.00	    43.301
   5.920	    116.67	    31.180
   5.940	    150.00	    35.355
   5.960	    200.00	    40.825
   5.980	    166.67	    37.268
   6.000	    200.00	    40.825
   6.020	    225.00	    43.301
   6.040	    200.00	    40.825
   6.060	    191.67	    39.965
   6.080	    200.00	    40.825
   6.100	    166.67	    37.268
   6.120	    241.67	    44.876
   6.140	    200.00	    40.825
   6.160	    158.33	    36.324
   6.180	    183.33	    39.087
   6.200	    200.00	    40.825
   6.220	    133.33	    33.333
   6.240	    166.67	    37.268
   6.260	    225.00	    43.301
   6.280	    133.33	    33.333
   6.300	    175.00	    38.188
   6.320	    225.00	    43.301
   6.340	    183.33	    39.087
   6.360	    166.67	    37.268
   6.380	    191.67	    39.965
   6.400	    216.67	    42.492
   6.420	    183.33	    39.087
   6.440	    191.67	    39.965
   6.460	    225.00	    43.301
   6.480	    166.67	    37.268
   6.500	    200.00	    40.825
   6.520	    175.00	    38.188
   6.540	    208.33	    41.667
   6.560	    191.67	    39.965
   6.580	    133.33	    33.333
   6.600	    216.67	    42.492
   6.620	    158.33	    36.324
   6.640	    125.00	    32.275
   6.660	    158.33	    36.324
   6.680	    133.33	    33.333
   6.700	    150.00	    35.355
   6.720	    208.33	    41.667
   6.740	    133.33	    33.333
   6.760	    158.33	    36.324
   6.780	    166.67	    37.268
   6.800	    241.67	    44.876
   6.820	    191.67	    39.965
   6.840	    133.33	    33.333
   6.860	    183.33	    39.087
   6.880	    166.67	    37.268
   6.900	    225.00	    43.301
   6.920	    233.33	    44.096
   6.940	    225.00	    43.301
   6.960	    191.67	    39.965
   6.980	    141.67	    34.359
   7.000	    200.00	    40.825
   7.020	    183.33	    39.087
   7.040	    133.33	    33.333
   7.060	    141.67	    34.359
   7.080	    141.67	    34.359
   7.100	    150.00	    35.355
   7.120	    216.67	    42.492
   7.140	    133.33	    33.333
   7.160	    150.00	    35.355
   7.180	    108.33	    30.046
   7.200	    108.33	    30.046
   7.220	    208.33	    41.667
   7.240	    150.00	    35.355
   7.260	    150.00	    35.355
   7.280	    166.67	    37.268
   7.300	    150.00	    35.355
   7.320	    133.33	    33.333
   7.340	    158.33	    36.324
   7.360	    100.00	    28.868
   7.380	    125.00	    32.275
   7.400	    108.33	    30.046
   7.420	    133.33	    33.333
   7.440	    150.00	    35.355
   7.460	    175.00	    38.188
   7.480	    166.67	    37.268
   7.500	    175.00	    38.188
   7.520	    166.67	    37.268
   7.540	    175.00	    38.188
   7.560	    150.00	    35.355
   7.580	    141.67	    34.359
   7.600	    158.33	    36.324
   7.620	    158.33	    36.324
   7.640	    125.00	    32.275
   7.660	    125.00	    32.275
   7.680	    158.33	    36.324
   7.700	    125.00	    32.275
   7.720	    158.33	    36.324
   7.740	    116.67	    31.180
   7.760	    125.00	    32.275
   7.780	    133.33	    33.333
   7.800	    175.00	    38.188
   7.820	    175.00	    38.188
   7.840	    166.67	    37.268
   7.860	    100.00	    28.868
   7.880	    100.00	    28.868
   7.900	    183.33	    39.087
   7.920	    108.33	    30.046
   7.940	    125.00	    32.275
   7.960	    133.33	    33.333
   7.980	    133.33	    33.333
   8.000	    116.67	    31.180
   8.020	    191.67	    39.965
   8.040	    125.00	    32.275
   8.060	    125.00	    32.275
   8.080	     91.67	    27.639
   8.100	    125.00	    32.275
   8.120	     83.33	    26.352
   8.140	    133.33	    33.333
   8.160	    100.00	    28.868
   8.180	    150.00	    35.355
   8.200	    141.67	    34.359
   8.220	    133.33	    33.333
   8.240	    141.67	    34.359
   8.260	     91.67	    27.639
   8.280	    166.67	    37.268
   8.300	    158.33	    36.324
   8.320	    150.00	    35.355
   8.340	     91.67	    27.639
   8.360	     83.33	    26.352
   8.380	    150.00	    35.355
   8.400	    141.67	    34.359
   8.420	    116.67	    31.180
   8.440	     91.67	    27.639
   8.460	    125.00	    32.275
   8.480	    108.33	    30.046
   8.500	     83.33	    26.352
   8.520	    100.00	    28.868
   8.540	    116.67	    31.180
   8.560	    158.33	    36.324
   8.580	    158.33	    36.324
   8.600	    191.67	    39.965
   8.620	    183.33	    39.087
   8.640	     91.67	    27.639
   8.660	    133.33	    33.333
   8.680	    150.00	    35.355
   8.700	    150.00	    35.355
   8.720	    208.33	    41.667
   8.740	     75.00	    25.000
   8.760	    108.33	    30.046
   8.780	     91.67	    27.639
   8.800	    175.00	    38.188
   8.820	    158.33	    36.324
   8.840	    141.67	    34.359
   8.860	    133.33	    33.333
   8.880	    133.33	    33.333
   8.900	    175.00	    38.188
   8.920	    141.67	    34.359
   8.940	    125.00	    32.275
   8.960	    125.00	    32.275
   8.980	    108.33	    30.046
   9.000	    175.00	    38.188
   9.020	    208.33	    41.667
   9.040	    183.33	    39.087
   9.060	    150.00	    35.355
   9.080	    116.67	    31.180
   9.100	    150.00	    35.355
   9.120	    183.33	    39.087
   9.140	     91.67	    27.639
   9.160	    175.00	    38.188
   9.180	    158.33	    36.324
   9.200	    100.00	    28.868
   9.220	     50.00	    20.412
   9.240	    150.00	    35.355
   9.260	    150.00	    35.355
   9.280	    166.67	    37.268
   9.300	    141.67	    34.359
   9.320	    141.67	    34.359
   9.340	    100.00	    28.868
   9.360	    175.00	    38.188
   9.380	    116.67	    31.180
   9.400	    100.00	    28.868
   9.420	    141.67	    34.359
   9.440	    133.33	    33.333
   9.460	    133.33	    33.333
   9.480	    141.67	    34.359
   9.500	    141.67	    34.359
   9.520	    150.00	    35.355
   9.540	    133.33	    33.333
   9.560	    166.67	    37.268
   9.580	    141.67	    34.359
   9.600	     75.00	    25.000
   9.620	    150.00	    35.355
   9.640	    116.67	    31.180
   9.660	    141.67	    34.359
   9.680	    141.67	    34.359
   9.700	    208.33	    41.667
   9.720	    175.00	    38.188
   9.740	    133.33	    33.333
   9.760	    116.67	    31.180
   9.780	    116.67	    31.180
   9.800	    191.67	    39.965
   9.820	    108.33	    30.046
   9.840	    141.67	    34.359
   9.860	    216.67	    42.492
   9.880	    141.67	    34.359
   9.900	    116.67	    31.180
   9.920	    100.00	    28.868
   9.940	    166.67	    37.268
   9.960	    108.33	    30.046
   9.980	    116.67	    31.180
  10.000	     91.67	    27.639
  10.020	    116.67	    31.180
  10.040	    133.33	    33.333
  10.060	     66.67	    23.570
  10.080	    125.00	    32.275
  10.100	    100.00	    28.868
  10.120	     91.67	    27.639
  10.140	    100.00	    28.868
  10.160	     91.67	    27.639
  10.180	    108.33	    30.046
  10.200	    150.00	    35.355
  10.220	    100.00	    28.868
  10.240	    208.33	    41.667
  10.260	     91.67	    27.639
  10.280	    100.00	    28.868
  10.300	    100.00	    28.868
  10.320	    158.33	    36.324
  10.340	    133.33	    33.333
  10.360	    141.67	    34.359
  10.380	    133.33	    33.333
  10.400	    166.67	    37.268
  10.420	    108.33	    30.046
  10.440	    116.67	    31.180
  10.460	    133.33	    33.333
  10.480	    100.00	    28.868
  10.500	     75.00	    25.000
  10.520	    141.67	    34.359
  10.540	    133.33	    33.333
  10.560	    133.33	    33.333
  10.580	    116.67	    31.180
  10.600	    116.67	    31.180
  10.620	    108.33	    30.046
  10.640	    133.33	    33.333
  10.660	    108.33	    30.046
  10.680	    100.00	    28.868
  10.700	    125.00	    32.275
  10.720	    133.33	    33.333
  10.740	    125.00	    32.275
  10.760	    100.00	    28.868
  10.780	    108.33	    30.046
  10.800	    175.00	    38.188
  10.820	    108.33	    30.046
  10.840	    141.67	    34.359
  10.860	    150.00	    35.355
  10.880	    141.67	    34.359
  10.900	    150.00	    35.355
  10.920	    133.33	    33.333
  10.940	    116.67	    31.180
  10.960	     91.67	    27.639
  10.980	     75.00	    25.000
  11.000	    108.33	    30.046
  11.020	     91.67	    27.639
  11.040	    108.33	    30.046
  11.060	     75.00	    25.000
  11.080	    158.33	    36.324
  11.100	    108.33	    30.046
  11.120	     91.67	    27.639
  11.140	     50.00	    20.412
  11.160	    141.67	    34.359
  11.180	    166.67	    37.268
  11.200	     91.67	    27.639
  11.220	    100.00	    28.868
  11.240	    175.00	    38.188
  11.260	    100.00	    28.868
  11.280	    133.33	    33.333
  11.300	    158.33	    36.324
  11.320	    108.33	    30.046
  11.340	    116.67	    31.180
  11.360	    125.00	    32.275
  11.380	    116.67	    31.180
  11.400	    108.33	    30.046
  11.420	     66.67	    23.570
  11.440	    158.33	    36.324
  11.460	    125.00	    32.275
  11.480	     75.00	    25.000
  11.500	     75.00	    25.000
  11.520	    183.33	    39.087
  11.540	    108.33	    30.046
  11.560	     75.00	    25.000
  11.580	     75.00	    25.000
  11.600	    133.33	    33.333
  11.620	    116.67	    31.180
  11.640	    108.33	    30.046
  11.660	    116.67	    31.180
  11.680	    116.67	    31.180
  11.700	     91.67	    27.639
  11.720	    108.33	    30.046
  11.740	    125.00	    32.275
  11.760	     91.67	    27.639
  11.780	    125.00	    32.275
  11.800	    116.67	    31.180
  11.820	     91.67	    27.639
  11.840	    141.67	    34.359
  11.860	    125.00	    32.275
  11.880	     50.00	    20.412
  11.900	    158.33	    36.324
  11.920	     75.00	    25.000
  11.940	    100.00	    28.868
  11.960	    116.67	    31.180
  11.980	     91.67	    27.639
  12.000	    125.00	    32.275
  12.020	    108.33	    30.046
  12.040	     91.67	    27.639
  12.060	    150.00	    35.355
  12.080	    125.00	    32.275
  12.100	    100.00	    28.868
  12.120	    166.67	    37.268
  12.140	    100.00	    28.868
  12.160	    133.33	    33.333
  12.180	    175.00	    38.188
  12.200	     91.67	    27.639
  12.220	     91.67	    27.639
  12.240	    108.33	    30.046
  12.260	    100.00	    28.868
  12.280	     75.00	    25.000
  12.300	     75.00	    25.000
  12.320	     83.33	    26.352
  12.340	    141.67	    34.359
  12.360	     75.00	    25.000
  12.380	    133.33	    33.333
  12.400	     75.00	    25.000
  12.420	    150.00	    35.355
  12.440	    100.00	    28.868
  12.460	    125.00	    32.275
  12.480	    158.33	    36.324
  12.500	    125.00	    32.275
  12.520	    141.67	    34.359
  12.540	    108.33	    30.046
  12.560	     83.33	    26.352
  12.580	    108.33	    30.046
  12.600	    141.67	    34.359
  12.620	     66.67	    23.570
  12.640	    100.00	    28.868
  12.660	     91.67	    27.639
  12.680	     58.33	    22.048
  12.700	     83.33	    26.352
  12.720	     66.67	    23.570
  12.740	     83.33	    26.352
  12.760	    158.33	    36.324
  12.780	    150.00	    35.355
  12.800	    108.33	    30.046
  12.820	     83.33	    26.352
  12.840	    100.00	    28.868
  12.860	     66.67	    23.570
  12.880	    141.67	    34.359
  12.900	    133.33	    33.333
  12.920	    133.33	    33.333
  12.940	    116.67	    31.180
  12.960	    133.33	    33.333
  12.980	    150.00	    35.355
  13.000	     91.67	    27.639
  13.020	    133.33	    33.333
  13.040	    125.00	    32.275
  13.060	     91.67	    27.639
  13.080	    108.33	    30.046
  13.100	     66.67	    23.570
  13.120	    108.33	    30.046
  13.140	    108.33	    30.046
  13.160	    108.33	    30.046
  13.180	    116.67	    31.180
  13.200	     91.67	    27.639
  13.220	    125.00	    32.275
  13.240	     91.67	    27.639
  13.260	    125.00	    32.275
  13.280	    133.33	    33.333
  13.300	    150.00	    35.355
  13.320	     75.00	    25.000
  13.340	    141.67	    34.359
  13.360	    100.00	    28.868
  13.380	    100.00	    28.868
  13.400	    125.00	    32.275
  13.420	    108.33	    30.046
  13.440	    158.33	    36.324
  13.460	     83.33	    26.352
  13.480	     75.00	    25.000
  13.500	    108.33	    30.046
  13.520	     83.33	    26.352
  13.540	    116.67	    31.180
  13.560	     83.33	    26.352
  13.580	    100.00	    28.868
  13.600	     66.67	    23.570
  13.620	    133.33	    33.333
  13.640	    108.33	    30.046
  13.660	     91.67	    27.639
  13.680	     91.67	    27.639
  13.700	    133.33	    33.333
  13.720	    150.00	    35.355
  13.740	     66.67	    23.570
  13.760	     91.67	    27.639
  13.780	     66.67	    23.570
  13.800	    100.00	    28.868
  13.820	    100.00	    28.868
  13.840	    116.67	    31.180
  13.860	     91.67	    27.639
  13.880	     91.67	    27.639
  13.900	     83.33	    26.352
  13.920	    100.00	    28.868
  13.940	     75.00	    25.000
  13.960	    141.67	    34.359
  13.980	    116.67	    31.180
  14.000	     75.00	    25.000
  14.020	     83.33	    26.352
  14.040	    100.00	    28.868
  14.060	    108.33	    30.046
  14.080	    166.67	    37.268
  14.100	    133.33	    33.333
  14.120	    133.33	    33.333
  14.140	    141.67	    34.359
  14.160	    108.33	    30.046
  14.180	    116.67	    31.180
  14.200	     83.33	    26.352
  14.220	    108.33	    30.046
  14.240	     66.67	    23.570
  14.260	     91.67	    27.639
  14.280	    141.67	    34.359
  14.300	     91.67	    27.639
  14.320	    125.00	    32.275
  14.340	    108.33	    30.046
  14.360	    100.00	    28.868
  14.380	    108.33	    30.046
  14.400	     41.67	    18.634
  14.420	    100.00	    28.868
  14.440	    100.00	    28.868
  14.460	    116.67	    31.180
  14.480	    125.00	    32.275
  14.500	    141.67	    34.359
  14.520	    108.33	    30.046
  14.540	    125.00	    32.275
  14.560	    116.67	    31.180
  14.580	    108.33	    30.046
  14.600	     75.00	    25.000
  14.620	    100.00	    28.868
  14.640	     75.00	    25.000
  14.660	     75.00	    25.000
  14.680	    133.33	    33.333
  14.700	    108.33	    30.046
  14.720	     83.33	    26.352
  14.740	     91.67	    27.639
  14.760	    133.33	    33.333
  14.780	     91.67	    27.639
  14.800	     75.00	    25.000
  14.820	     66.67	    23.570
  14.840	     91.67	    27.639
  14.860	     75.00	    25.000
  14.880	    108.33	    30.046
  14.900	     83.33	    26.352
  14.920	    108.33	    30.046
  14.940	     75.00	    25.000
  14.960	     66.67	    23.570
  14.980	     83.33	    26.352
  15.000	    125.00	    32.275
  15.020	    125.00	    32.275
  15.040	    125.00	    32.275
  15.060	    116.67	    31.180
  15.080	     91.67	    27.639
  15.100	    125.00	    32.275
  15.120	    133.33	    33.333
  15.140	    100.00	    28.868
  15.160	    141.67	    34.359
  15.180	    141.67	    34.359
  15.200	    125.00	    32.275
  15.220	     50.00	    20.412
  15.240	    125.00	    32.275
  15.260	     91.67	    27.639
  15.280	    125.00	    32.275
  15.300	    108.33	    30.046
  15.320	    100.00	    28.868
  15.340	     91.67	    27.639
  15.360	     66.67	    23.570
  15.380	    183.33	    39.087
  15.400	     83.33	    26.352
  15.420	    125.00	    32.275
  15.440	     91.67	    27.639
  15.460	    150.00	    35.355
  15.480	     75.00	    25.000
  15.500	    108.33	    30.046
  15.520	    108.33	    30.046
  15.540	     75.00	    25.000
  15.560	    100.00	    28.868
  15.580	     50.00	    20.412
  15.600	    158.33	    36.324
  15.620	     75.00	    25.000
  15.640	    108.33	    30.046
  15.660	    100.00	    28.868
  15.680	    133.33	    33.333
  15.700	     75.00	    25.000
  15.720	     91.67	    27.639
  15.740	     75.00	    25.000
  15.760	     75.00	    25.000
  15.780	    100.00	    28.868
  15.800	    116.67	    31.180
  15.820	     50.00	    20.412
  15.840	     66.67	    23.570
  15.860	    100.00	    28.868
  15.880	     83.33	    26.352
  15.900	     41.67	    18.634
  15.920	     91.67	    27.639
  15.940	     91.67	    27.639
  15.960	    183.33	    39.087
  15.980	     83.33	    26.352
  16.000	    100.00	    28.868
  16.020	    100.00	    28.868
  16.040	    100.00	    28.868
  16.060	     75.00	    25.000
  16.080	     91.67	    27.639
  16.100	    100.00	    28.868
  16.120	     83.33	    26.352
  16.140	    150.00	    35.355
  16.160	    125.00	    32.275
  16.180	     91.67	    27.639
  16.200	     91.67	    27.639
  16.220	     91.67	    27.639
  16.240	     75.00	    25.000
  16.260	     75.00	    25.000
  16.280	    166.67	    37.268
