         ID: 

    Comment: 

Scan Type: Normal
Start Angle: 5 deg.
Stop Angle: 100 deg.
Num Points: 4751
Step Size: 0.02 deg.
Datafile Res: 1600 
Scan Rate: 10.000000
Scan Mode: Continuous
Wavelength: 1.540562

Diffractometer Optics:
		Detector:
			 Type: Fixed Slits
			 X2 Configuration: No
		Tube: 
			 Type: Fixed Slits
			 X2 Configuration: No


Axis[0]
	 Selected   : no 
	 Iterative  : no 
	 Start Angle: 0.000000 
	 Stop Angle : 0.000000 
	 Step Size  : 0.000000 
	 Oscillating: no 

Axis[1]
	 Selected   : no 
	 Iterative  : no 
	 Start Angle: 0.000000 
	 Stop Angle : 0.000000 
	 Step Size  : 0.000000 
	 Oscillating: no 

Axis[2]
	 Selected   : no 
	 Iterative  : no 
	 Start Angle: 0.000000 
	 Stop Angle : 0.000000 
	 Step Size  : 0.000000 
	 Oscillating: no 

Axis[3]
	 Selected   : no 
	 Iterative  : no 
	 Start Angle: 0.000000 
	 Stop Angle : 0.000000 
	 Step Size  : 0.000000 
	 Oscillating: no 

Axis[4]
	 Selected   : no 
	 Iterative  : no 
	 Start Angle: 0.000000 
	 Stop Angle : 0.000000 
	 Step Size  : 0.000000 
	 Oscillating: no 

Axis[5]
	 Selected   : no 
	 Iterative  : no 
	 Start Angle: 0.000000 
	 Stop Angle : 0.000000 
	 Step Size  : 0.000000 
	 Oscillating: no 

Axis[6]
	 Selected   : no 
	 Iterative  : no 
	 Start Angle: 0.000000 
	 Stop Angle : 0.000000 
	 Step Size  : 0.000000 
	 Oscillating: no 

Axis[7]
	 Selected   : no 
	 Iterative  : no 
	 Start Angle: 0.000000 
	 Stop Angle : 0.000000 
	 Step Size  : 0.000000 
	 Oscillating: no 

Axis[8]
	 Selected   : no 
	 Iterative  : no 
	 Start Angle: 0.000000 
	 Stop Angle : 0.000000 
	 Step Size  : 0.000000 
	 Oscillating: no 

Axis[9]
	 Selected   : no 
	 Iterative  : no 
	 Start Angle: 0.000000 
	 Stop Angle : 0.000000 
	 Step Size  : 0.000000 
	 Oscillating: no 




	   Deg.      CPS  	    ESD   

Range 0
   5.000	    250.00	    45.644
   5.020	    208.33	    41.667
   5.040	    250.00	    45.644
   5.060	    225.00	    43.301
   5.080	    166.67	    37.268
   5.100	    308.33	    50.690
   5.120	    216.67	    42.492
   5.140	    225.00	    43.301
   5.160	    233.33	    44.096
   5.180	    200.00	    40.825
   5.200	    233.33	    44.096
   5.220	    250.00	    45.644
   5.240	    233.33	    44.096
   5.260	    216.67	    42.492
   5.280	    191.67	    39.965
   5.300	    200.00	    40.825
   5.320	    208.33	    41.667
   5.340	    183.33	    39.087
   5.360	    283.33	    48.591
   5.380	    150.00	    35.355
   5.400	    325.00	    52.042
   5.420	    216.67	    42.492
   5.440	    283.33	    48.591
   5.460	    183.33	    39.087
   5.480	    200.00	    40.825
   5.500	    225.00	    43.301
   5.520	    225.00	    43.301
   5.540	    150.00	    35.355
   5.560	    141.67	    34.359
   5.580	    241.67	    44.876
   5.600	    158.33	    36.324
   5.620	    266.67	    47.140
   5.640	    241.67	    44.876
   5.660	    191.67	    39.965
   5.680	    183.33	    39.087
   5.700	    200.00	    40.825
   5.720	    158.33	    36.324
   5.740	    166.67	    37.268
   5.760	    175.00	    38.188
   5.780	    208.33	    41.667
   5.800	    183.33	    39.087
   5.820	    166.67	    37.268
   5.840	    166.67	    37.268
   5.860	    158.33	    36.324
   5.880	    183.33	    39.087
   5.900	    308.33	    50.690
   5.920	    191.67	    39.965
   5.940	    175.00	    38.188
   5.960	    158.33	    36.324
   5.980	    200.00	    40.825
   6.000	    200.00	    40.825
   6.020	    150.00	    35.355
   6.040	    208.33	    41.667
   6.060	    200.00	    40.825
   6.080	    183.33	    39.087
   6.100	    166.67	    37.268
   6.120	    158.33	    36.324
   6.140	    241.67	    44.876
   6.160	    141.67	    34.359
   6.180	    133.33	    33.333
   6.200	    250.00	    45.644
   6.220	    150.00	    35.355
   6.240	    225.00	    43.301
   6.260	    175.00	    38.188
   6.280	    125.00	    32.275
   6.300	    150.00	    35.355
   6.320	    258.33	    46.398
   6.340	    175.00	    38.188
   6.360	    125.00	    32.275
   6.380	    183.33	    39.087
   6.400	    275.00	    47.871
   6.420	    133.33	    33.333
   6.440	    200.00	    40.825
   6.460	    175.00	    38.188
   6.480	    175.00	    38.188
   6.500	    158.33	    36.324
   6.520	    108.33	    30.046
   6.540	    241.67	    44.876
   6.560	    116.67	    31.180
   6.580	    191.67	    39.965
   6.600	    166.67	    37.268
   6.620	    141.67	    34.359
   6.640	    125.00	    32.275
   6.660	    158.33	    36.324
   6.680	    158.33	    36.324
   6.700	    150.00	    35.355
   6.720	    191.67	    39.965
   6.740	    100.00	    28.868
   6.760	    116.67	    31.180
   6.780	    125.00	    32.275
   6.800	    183.33	    39.087
   6.820	    141.67	    34.359
   6.840	    141.67	    34.359
   6.860	    191.67	    39.965
   6.880	    158.33	    36.324
   6.900	    125.00	    32.275
   6.920	    125.00	    32.275
   6.940	    141.67	    34.359
   6.960	    141.67	    34.359
   6.980	    133.33	    33.333
   7.000	    175.00	    38.188
   7.020	    166.67	    37.268
   7.040	    116.67	    31.180
   7.060	    158.33	    36.324
   7.080	    200.00	    40.825
   7.100	    225.00	    43.301
   7.120	    200.00	    40.825
   7.140	    125.00	    32.275
   7.160	    166.67	    37.268
   7.180	    141.67	    34.359
   7.200	    125.00	    32.275
   7.220	    108.33	    30.046
   7.240	    175.00	    38.188
   7.260	    150.00	    35.355
   7.280	    158.33	    36.324
   7.300	    183.33	    39.087
   7.320	    133.33	    33.333
   7.340	    258.33	    46.398
   7.360	    158.33	    36.324
   7.380	    133.33	    33.333
   7.400	    150.00	    35.355
   7.420	    125.00	    32.275
   7.440	    141.67	    34.359
   7.460	    200.00	    40.825
   7.480	    133.33	    33.333
   7.500	    108.33	    30.046
   7.520	    133.33	    33.333
   7.540	    158.33	    36.324
   7.560	    200.00	    40.825
   7.580	    175.00	    38.188
   7.600	    166.67	    37.268
   7.620	    116.67	    31.180
   7.640	    116.67	    31.180
   7.660	    141.67	    34.359
   7.680	    183.33	    39.087
   7.700	    175.00	    38.188
   7.720	    166.67	    37.268
   7.740	    158.33	    36.324
   7.760	    125.00	    32.275
   7.780	    133.33	    33.333
   7.800	    141.67	    34.359
   7.820	    133.33	    33.333
   7.840	    108.33	    30.046
   7.860	    133.33	    33.333
   7.880	    166.67	    37.268
   7.900	    125.00	    32.275
   7.920	    141.67	    34.359
   7.940	    150.00	    35.355
   7.960	    191.67	    39.965
   7.980	    158.33	    36.324
   8.000	    108.33	    30.046
   8.020	    116.67	    31.180
   8.040	    125.00	    32.275
   8.060	    125.00	    32.275
   8.080	    125.00	    32.275
   8.100	    108.33	    30.046
   8.120	    125.00	    32.275
   8.140	    158.33	    36.324
   8.160	    100.00	    28.868
   8.180	     91.67	    27.639
   8.200	    141.67	    34.359
   8.220	    141.67	    34.359
   8.240	     91.67	    27.639
   8.260	    116.67	    31.180
   8.280	    158.33	    36.324
   8.300	     75.00	    25.000
   8.320	    125.00	    32.275
   8.340	    183.33	    39.087
   8.360	    116.67	    31.180
   8.380	    183.33	    39.087
   8.400	    100.00	    28.868
   8.420	    125.00	    32.275
   8.440	    133.33	    33.333
   8.460	    183.33	    39.087
   8.480	    116.67	    31.180
   8.500	    208.33	    41.667
   8.520	    125.00	    32.275
   8.540	    166.67	    37.268
   8.560	    116.67	    31.180
   8.580	    108.33	    30.046
   8.600	    158.33	    36.324
   8.620	    166.67	    37.268
   8.640	    158.33	    36.324
   8.660	    133.33	    33.333
   8.680	    133.33	    33.333
   8.700	    175.00	    38.188
   8.720	    183.33	    39.087
   8.740	    166.67	    37.268
   8.760	    150.00	    35.355
   8.780	    125.00	    32.275
   8.800	    150.00	    35.355
   8.820	    208.33	    41.667
   8.840	    108.33	    30.046
   8.860	    133.33	    33.333
   8.880	     83.33	    26.352
   8.900	    125.00	    32.275
   8.920	    133.33	    33.333
   8.940	    175.00	    38.188
   8.960	     83.33	    26.352
   8.980	    125.00	    32.275
   9.000	     58.33	    22.048
   9.020	    108.33	    30.046
   9.040	    225.00	    43.301
   9.060	    133.33	    33.333
   9.080	    100.00	    28.868
   9.100	    158.33	    36.324
   9.120	    150.00	    35.355
   9.140	    133.33	    33.333
   9.160	    125.00	    32.275
   9.180	    191.67	    39.965
   9.200	    183.33	    39.087
   9.220	    116.67	    31.180
   9.240	    141.67	    34.359
   9.260	    141.67	    34.359
   9.280	    141.67	    34.359
   9.300	    158.33	    36.324
   9.320	    116.67	    31.180
   9.340	    141.67	    34.359
   9.360	    258.33	    46.398
   9.380	    125.00	    32.275
   9.400	    133.33	    33.333
   9.420	    175.00	    38.188
   9.440	    141.67	    34.359
   9.460	    158.33	    36.324
   9.480	    166.67	    37.268
   9.500	    158.33	    36.324
   9.520	    108.33	    30.046
   9.540	    175.00	    38.188
   9.560	     75.00	    25.000
   9.580	     91.67	    27.639
   9.600	    183.33	    39.087
   9.620	    133.33	    33.333
   9.640	    141.67	    34.359
   9.660	    141.67	    34.359
   9.680	    116.67	    31.180
   9.700	    150.00	    35.355
   9.720	    108.33	    30.046
   9.740	    125.00	    32.275
   9.760	    100.00	    28.868
   9.780	    166.67	    37.268
   9.800	    158.33	    36.324
   9.820	    125.00	    32.275
   9.840	    133.33	    33.333
   9.860	    116.67	    31.180
   9.880	    116.67	    31.180
   9.900	     91.67	    27.639
   9.920	    100.00	    28.868
   9.940	    200.00	    40.825
   9.960	    116.67	    31.180
   9.980	    141.67	    34.359
  10.000	    166.67	    37.268
  10.020	    116.67	    31.180
  10.040	    100.00	    28.868
  10.060	    133.33	    33.333
  10.080	    166.67	    37.268
  10.100	     91.67	    27.639
  10.120	    191.67	    39.965
  10.140	    108.33	    30.046
  10.160	    166.67	    37.268
  10.180	    200.00	    40.825
  10.200	     91.67	    27.639
  10.220	    133.33	    33.333
  10.240	    116.67	    31.180
  10.260	    125.00	    32.275
  10.280	    200.00	    40.825
  10.300	    116.67	    31.180
  10.320	    133.33	    33.333
  10.340	    125.00	    32.275
  10.360	    108.33	    30.046
  10.380	    150.00	    35.355
  10.400	    141.67	    34.359
  10.420	    158.33	    36.324
  10.440	    158.33	    36.324
  10.460	    141.67	    34.359
  10.480	    116.67	    31.180
  10.500	    150.00	    35.355
  10.520	    133.33	    33.333
  10.540	    108.33	    30.046
  10.560	     91.67	    27.639
  10.580	     91.67	    27.639
  10.600	    125.00	    32.275
  10.620	     66.67	    23.570
  10.640	     75.00	    25.000
  10.660	    166.67	    37.268
  10.680	    133.33	    33.333
  10.700	    141.67	    34.359
  10.720	    125.00	    32.275
  10.740	    125.00	    32.275
  10.760	    100.00	    28.868
  10.780	    125.00	    32.275
  10.800	    141.67	    34.359
  10.820	    141.67	    34.359
  10.840	     50.00	    20.412
  10.860	     91.67	    27.639
  10.880	    108.33	    30.046
  10.900	    108.33	    30.046
  10.920	    100.00	    28.868
  10.940	    116.67	    31.180
  10.960	     75.00	    25.000
  10.980	    166.67	    37.268
  11.000	    108.33	    30.046
  11.020	    200.00	    40.825
  11.040	    141.67	    34.359
  11.060	    125.00	    32.275
  11.080	    191.67	    39.965
  11.100	    125.00	    32.275
  11.120	    108.33	    30.046
  11.140	     83.33	    26.352
  11.160	    133.33	    33.333
  11.180	    158.33	    36.324
  11.200	    158.33	    36.324
  11.220	     58.33	    22.048
  11.240	    125.00	    32.275
  11.260	    125.00	    32.275
  11.280	    108.33	    30.046
  11.300	    116.67	    31.180
  11.320	     91.67	    27.639
  11.340	    183.33	    39.087
  11.360	    133.33	    33.333
  11.380	    158.33	    36.324
  11.400	    108.33	    30.046
  11.420	    150.00	    35.355
  11.440	    141.67	    34.359
  11.460	    125.00	    32.275
  11.480	    100.00	    28.868
  11.500	    216.67	    42.492
  11.520	    191.67	    39.965
  11.540	    166.67	    37.268
  11.560	     83.33	    26.352
  11.580	    125.00	    32.275
  11.600	    208.33	    41.667
  11.620	    141.67	    34.359
  11.640	    141.67	    34.359
  11.660	    175.00	    38.188
  11.680	     58.33	    22.048
  11.700	     83.33	    26.352
  11.720	    108.33	    30.046
  11.740	    116.67	    31.180
  11.760	    100.00	    28.868
  11.780	    116.67	    31.180
  11.800	     75.00	    25.000
  11.820	    133.33	    33.333
  11.840	    116.67	    31.180
  11.860	     83.33	    26.352
  11.880	    100.00	    28.868
  11.900	    100.00	    28.868
  11.920	    158.33	    36.324
  11.940	    116.67	    31.180
  11.960	    108.33	    30.046
  11.980	    100.00	    28.868
  12.000	    116.67	    31.180
  12.020	     91.67	    27.639
  12.040	    166.67	    37.268
  12.060	    100.00	    28.868
  12.080	    150.00	    35.355
  12.100	    116.67	    31.180
  12.120	    166.67	    37.268
  12.140	    125.00	    32.275
  12.160	    200.00	    40.825
  12.180	    125.00	    32.275
  12.200	    100.00	    28.868
  12.220	     83.33	    26.352
  12.240	    208.33	    41.667
  12.260	    141.67	    34.359
  12.280	     91.67	    27.639
  12.300	    100.00	    28.868
  12.320	    141.67	    34.359
  12.340	     66.67	    23.570
  12.360	    200.00	    40.825
  12.380	    141.67	    34.359
  12.400	    108.33	    30.046
  12.420	    133.33	    33.333
  12.440	     83.33	    26.352
  12.460	    125.00	    32.275
  12.480	    150.00	    35.355
  12.500	    150.00	    35.355
  12.520	    183.33	    39.087
  12.540	    116.67	    31.180
  12.560	    100.00	    28.868
  12.580	    250.00	    45.644
  12.600	    208.33	    41.667
  12.620	    225.00	    43.301
  12.640	    250.00	    45.644
  12.660	    316.67	    51.370
  12.680	    200.00	    40.825
  12.700	    225.00	    43.301
  12.720	    408.33	    58.333
  12.740	    266.67	    47.140
  12.760	    466.67	    62.361
  12.780	    250.00	    45.644
  12.800	    458.33	    61.802
  12.820	    300.00	    50.000
  12.840	    241.67	    44.876
  12.860	    291.67	    49.301
  12.880	    183.33	    39.087
  12.900	    200.00	    40.825
  12.920	    191.67	    39.965
  12.940	    191.67	    39.965
  12.960	     83.33	    26.352
  12.980	    100.00	    28.868
  13.000	     91.67	    27.639
  13.020	    158.33	    36.324
  13.040	    158.33	    36.324
  13.060	     91.67	    27.639
  13.080	    183.33	    39.087
  13.100	    133.33	    33.333
  13.120	    216.67	    42.492
  13.140	    175.00	    38.188
  13.160	    150.00	    35.355
  13.180	    100.00	    28.868
  13.200	     91.67	    27.639
  13.220	     91.67	    27.639
  13.240	    158.33	    36.324
  13.260	    116.67	    31.180
  13.280	    125.00	    32.275
  13.300	    125.00	    32.275
  13.320	    158.33	    36.324
  13.340	    108.33	    30.046
  13.360	    183.33	    39.087
  13.380	    125.00	    32.275
  13.400	    158.33	    36.324
  13.420	    108.33	    30.046
  13.440	    125.00	    32.275
  13.460	    175.00	    38.188
  13.480	    150.00	    35.355
  13.500	     91.67	    27.639
  13.520	     91.67	    27.639
  13.540	    116.67	    31.180
  13.560	    108.33	    30.046
  13.580	    125.00	    32.275
  13.600	    158.33	    36.324
  13.620	    166.67	    37.268
  13.640	    166.67	    37.268
  13.660	    125.00	    32.275
  13.680	     91.67	    27.639
  13.700	    141.67	    34.359
  13.720	    125.00	    32.275
  13.740	    116.67	    31.180
  13.760	    158.33	    36.324
  13.780	    158.33	    36.324
  13.800	     83.33	    26.352
  13.820	    108.33	    30.046
  13.840	     83.33	    26.352
  13.860	    200.00	    40.825
  13.880	    141.67	    34.359
  13.900	    141.67	    34.359
  13.920	    166.67	    37.268
  13.940	    150.00	    35.355
  13.960	     91.67	    27.639
  13.980	    116.67	    31.180
  14.000	    141.67	    34.359
  14.020	    150.00	    35.355
  14.040	    108.33	    30.046
  14.060	    158.33	    36.324
  14.080	    125.00	    32.275
  14.100	    166.67	    37.268
  14.120	    158.33	    36.324
  14.140	    116.67	    31.180
  14.160	    100.00	    28.868
  14.180	    125.00	    32.275
  14.200	    125.00	    32.275
  14.220	     91.67	    27.639
  14.240	    200.00	    40.825
  14.260	    116.67	    31.180
  14.280	    116.67	    31.180
  14.300	    125.00	    32.275
  14.320	    116.67	    31.180
  14.340	    150.00	    35.355
  14.360	     83.33	    26.352
  14.380	    141.67	    34.359
  14.400	    133.33	    33.333
  14.420	     83.33	    26.352
  14.440	    133.33	    33.333
  14.460	    166.67	    37.268
  14.480	    125.00	    32.275
  14.500	    216.67	    42.492
  14.520	    116.67	    31.180
  14.540	    125.00	    32.275
  14.560	    108.33	    30.046
  14.580	    150.00	    35.355
  14.600	    141.67	    34.359
  14.620	     91.67	    27.639
  14.640	    133.33	    33.333
  14.660	    158.33	    36.324
  14.680	    133.33	    33.333
  14.700	    158.33	    36.324
  14.720	    108.33	    30.046
  14.740	    150.00	    35.355
  14.760	    125.00	    32.275
  14.780	    166.67	    37.268
  14.800	    141.67	    34.359
  14.820	    200.00	    40.825
  14.840	    183.33	    39.087
  14.860	    116.67	    31.180
  14.880	    208.33	    41.667
  14.900	     91.67	    27.639
  14.920	    133.33	    33.333
  14.940	    158.33	    36.324
  14.960	    141.67	    34.359
  14.980	    141.67	    34.359
  15.000	    183.33	    39.087
  15.020	    183.33	    39.087
  15.040	    166.67	    37.268
  15.060	    183.33	    39.087
  15.080	    141.67	    34.359
  15.100	    166.67	    37.268
  15.120	    133.33	    33.333
  15.140	     75.00	    25.000
  15.160	    116.67	    31.180
  15.180	    125.00	    32.275
  15.200	    100.00	    28.868
  15.220	    191.67	    39.965
  15.240	    133.33	    33.333
  15.260	    108.33	    30.046
  15.280	    116.67	    31.180
  15.300	    108.33	    30.046
  15.320	    183.33	    39.087
  15.340	    125.00	    32.275
  15.360	    175.00	    38.188
  15.380	    116.67	    31.180
  15.400	    100.00	    28.868
  15.420	    158.33	    36.324
  15.440	    216.67	    42.492
  15.460	    141.67	    34.359
  15.480	    116.67	    31.180
  15.500	    175.00	    38.188
  15.520	    125.00	    32.275
  15.540	    216.67	    42.492
  15.560	     75.00	    25.000
  15.580	     75.00	    25.000
  15.600	    133.33	    33.333
  15.620	    166.67	    37.268
  15.640	    166.67	    37.268
  15.660	     91.67	    27.639
  15.680	    133.33	    33.333
  15.700	     83.33	    26.352
  15.720	    133.33	    33.333
  15.740	    125.00	    32.275
  15.760	    116.67	    31.180
  15.780	    133.33	    33.333
  15.800	    141.67	    34.359
  15.820	    100.00	    28.868
  15.840	    166.67	    37.268
  15.860	    133.33	    33.333
  15.880	    175.00	    38.188
  15.900	    116.67	    31.180
  15.920	    108.33	    30.046
  15.940	    116.67	    31.180
  15.960	    125.00	    32.275
  15.980	    166.67	    37.268
  16.000	    125.00	    32.275
  16.020	    108.33	    30.046
  16.040	     91.67	    27.639
  16.060	    108.33	    30.046
  16.080	     83.33	    26.352
  16.100	    108.33	    30.046
  16.120	    133.33	    33.333
  16.140	    150.00	    35.355
  16.160	    133.33	    33.333
  16.180	     91.67	    27.639
  16.200	     91.67	    27.639
  16.220	    116.67	    31.180
  16.240	    158.33	    36.324
  16.260	    191.67	    39.965
  16.280	    125.00	    32.275
