         ID: 

    Comment: 

Scan Type: Normal
Start Angle: 5 deg.
Stop Angle: 100 deg.
Num Points: 4751
Step Size: 0.02 deg.
Datafile Res: 1600 
Scan Rate: 10.000000
Scan Mode: Continuous
Wavelength: 1.540562

Diffractometer Optics:
		Detector:
			 Type: Fixed Slits
			 X2 Configuration: No
		Tube: 
			 Type: Fixed Slits
			 X2 Configuration: No


Axis[0]
	 Selected   : no 
	 Iterative  : no 
	 Start Angle: 0.000000 
	 Stop Angle : 0.000000 
	 Step Size  : 0.000000 
	 Oscillating: no 

Axis[1]
	 Selected   : no 
	 Iterative  : no 
	 Start Angle: 0.000000 
	 Stop Angle : 0.000000 
	 Step Size  : 0.000000 
	 Oscillating: no 

Axis[2]
	 Selected   : no 
	 Iterative  : no 
	 Start Angle: 0.000000 
	 Stop Angle : 0.000000 
	 Step Size  : 0.000000 
	 Oscillating: no 

Axis[3]
	 Selected   : no 
	 Iterative  : no 
	 Start Angle: 0.000000 
	 Stop Angle : 0.000000 
	 Step Size  : 0.000000 
	 Oscillating: no 

Axis[4]
	 Selected   : no 
	 Iterative  : no 
	 Start Angle: 0.000000 
	 Stop Angle : 0.000000 
	 Step Size  : 0.000000 
	 Oscillating: no 

Axis[5]
	 Selected   : no 
	 Iterative  : no 
	 Start Angle: 0.000000 
	 Stop Angle : 0.000000 
	 Step Size  : 0.000000 
	 Oscillating: no 

Axis[6]
	 Selected   : no 
	 Iterative  : no 
	 Start Angle: 0.000000 
	 Stop Angle : 0.000000 
	 Step Size  : 0.000000 
	 Oscillating: no 

Axis[7]
	 Selected   : no 
	 Iterative  : no 
	 Start Angle: 0.000000 
	 Stop Angle : 0.000000 
	 Step Size  : 0.000000 
	 Oscillating: no 

Axis[8]
	 Selected   : no 
	 Iterative  : no 
	 Start Angle: 0.000000 
	 Stop Angle : 0.000000 
	 Step Size  : 0.000000 
	 Oscillating: no 

Axis[9]
	 Selected   : no 
	 Iterative  : no 
	 Start Angle: 0.000000 
	 Stop Angle : 0.000000 
	 Step Size  : 0.000000 
	 Oscillating: no 




	   Deg.      CPS  	    ESD   

Range 0
   5.000	    241.67	    44.876
   5.020	    300.00	    50.000
   5.040	    258.33	    46.398
   5.060	    266.67	    47.140
   5.080	    225.00	    43.301
   5.100	    308.33	    50.690
   5.120	    225.00	    43.301
   5.140	    383.33	    56.519
   5.160	    300.00	    50.000
   5.180	    241.67	    44.876
   5.200	    258.33	    46.398
   5.220	    216.67	    42.492
   5.240	    241.67	    44.876
   5.260	    191.67	    39.965
   5.280	    283.33	    48.591
   5.300	    308.33	    50.690
   5.320	    283.33	    48.591
   5.340	    258.33	    46.398
   5.360	    300.00	    50.000
   5.380	    241.67	    44.876
   5.400	    266.67	    47.140
   5.420	    250.00	    45.644
   5.440	    275.00	    47.871
   5.460	    208.33	    41.667
   5.480	    233.33	    44.096
   5.500	    266.67	    47.140
   5.520	    283.33	    48.591
   5.540	    258.33	    46.398
   5.560	    233.33	    44.096
   5.580	    225.00	    43.301
   5.600	    316.67	    51.370
   5.620	    200.00	    40.825
   5.640	    216.67	    42.492
   5.660	    266.67	    47.140
   5.680	    200.00	    40.825
   5.700	    291.67	    49.301
   5.720	    308.33	    50.690
   5.740	    200.00	    40.825
   5.760	    316.67	    51.370
   5.780	    200.00	    40.825
   5.800	    258.33	    46.398
   5.820	    275.00	    47.871
   5.840	    208.33	    41.667
   5.860	    250.00	    45.644
   5.880	    233.33	    44.096
   5.900	    283.33	    48.591
   5.920	    258.33	    46.398
   5.940	    300.00	    50.000
   5.960	    250.00	    45.644
   5.980	    275.00	    47.871
   6.000	    358.33	    54.645
   6.020	    200.00	    40.825
   6.040	    250.00	    45.644
   6.060	    241.67	    44.876
   6.080	    241.67	    44.876
   6.100	    258.33	    46.398
   6.120	    150.00	    35.355
   6.140	    258.33	    46.398
   6.160	    225.00	    43.301
   6.180	    200.00	    40.825
   6.200	    341.67	    53.359
   6.220	    258.33	    46.398
   6.240	    291.67	    49.301
   6.260	    191.67	    39.965
   6.280	    275.00	    47.871
   6.300	    266.67	    47.140
   6.320	    308.33	    50.690
   6.340	    341.67	    53.359
   6.360	    225.00	    43.301
   6.380	    225.00	    43.301
   6.400	    258.33	    46.398
   6.420	    258.33	    46.398
   6.440	    133.33	    33.333
   6.460	    275.00	    47.871
   6.480	    300.00	    50.000
   6.500	    333.33	    52.705
   6.520	    283.33	    48.591
   6.540	    266.67	    47.140
   6.560	    241.67	    44.876
   6.580	    233.33	    44.096
   6.600	    291.67	    49.301
   6.620	    291.67	    49.301
   6.640	    266.67	    47.140
   6.660	    191.67	    39.965
   6.680	    275.00	    47.871
   6.700	    233.33	    44.096
   6.720	    333.33	    52.705
   6.740	    208.33	    41.667
   6.760	    175.00	    38.188
   6.780	    233.33	    44.096
   6.800	    241.67	    44.876
   6.820	    250.00	    45.644
   6.840	    308.33	    50.690
   6.860	    216.67	    42.492
   6.880	    208.33	    41.667
   6.900	    183.33	    39.087
   6.920	    250.00	    45.644
   6.940	    275.00	    47.871
   6.960	    275.00	    47.871
   6.980	    225.00	    43.301
   7.000	    291.67	    49.301
   7.020	    291.67	    49.301
   7.040	    216.67	    42.492
   7.060	    258.33	    46.398
   7.080	    200.00	    40.825
   7.100	    191.67	    39.965
   7.120	    341.67	    53.359
   7.140	    308.33	    50.690
   7.160	    333.33	    52.705
   7.180	    183.33	    39.087
   7.200	    200.00	    40.825
   7.220	    225.00	    43.301
   7.240	    308.33	    50.690
   7.260	    183.33	    39.087
   7.280	    250.00	    45.644
   7.300	    300.00	    50.000
   7.320	    233.33	    44.096
   7.340	    183.33	    39.087
   7.360	    208.33	    41.667
   7.380	    216.67	    42.492
   7.400	    183.33	    39.087
   7.420	    208.33	    41.667
   7.440	    225.00	    43.301
   7.460	    291.67	    49.301
   7.480	    233.33	    44.096
   7.500	    183.33	    39.087
   7.520	    241.67	    44.876
   7.540	    200.00	    40.825
   7.560	    241.67	    44.876
   7.580	    166.67	    37.268
   7.600	    200.00	    40.825
   7.620	    316.67	    51.370
   7.640	    216.67	    42.492
   7.660	    233.33	    44.096
   7.680	    241.67	    44.876
   7.700	    150.00	    35.355
   7.720	    266.67	    47.140
   7.740	    208.33	    41.667
   7.760	    308.33	    50.690
   7.780	    308.33	    50.690
   7.800	    225.00	    43.301
   7.820	    208.33	    41.667
   7.840	    191.67	    39.965
   7.860	    250.00	    45.644
   7.880	    208.33	    41.667
   7.900	    266.67	    47.140
   7.920	    275.00	    47.871
   7.940	    208.33	    41.667
   7.960	    233.33	    44.096
   7.980	    308.33	    50.690
   8.000	    200.00	    40.825
   8.020	    266.67	    47.140
   8.040	    250.00	    45.644
   8.060	    208.33	    41.667
   8.080	    241.67	    44.876
   8.100	    250.00	    45.644
   8.120	    250.00	    45.644
   8.140	    158.33	    36.324
   8.160	    250.00	    45.644
   8.180	    166.67	    37.268
   8.200	    300.00	    50.000
   8.220	    291.67	    49.301
   8.240	    250.00	    45.644
   8.260	    208.33	    41.667
   8.280	    250.00	    45.644
   8.300	    216.67	    42.492
   8.320	    216.67	    42.492
   8.340	    266.67	    47.140
   8.360	    250.00	    45.644
   8.380	    241.67	    44.876
   8.400	    391.67	    57.130
   8.420	    266.67	    47.140
   8.440	    183.33	    39.087
   8.460	    225.00	    43.301
   8.480	    275.00	    47.871
   8.500	    250.00	    45.644
   8.520	    225.00	    43.301
   8.540	    333.33	    52.705
   8.560	    316.67	    51.370
   8.580	    200.00	    40.825
   8.600	    300.00	    50.000
   8.620	    233.33	    44.096
   8.640	    266.67	    47.140
   8.660	    250.00	    45.644
   8.680	    325.00	    52.042
   8.700	    208.33	    41.667
   8.720	    275.00	    47.871
   8.740	    216.67	    42.492
   8.760	    200.00	    40.825
   8.780	    241.67	    44.876
   8.800	    258.33	    46.398
   8.820	    216.67	    42.492
   8.840	    241.67	    44.876
   8.860	    341.67	    53.359
   8.880	    216.67	    42.492
   8.900	    300.00	    50.000
   8.920	    258.33	    46.398
   8.940	    225.00	    43.301
   8.960	    258.33	    46.398
   8.980	    291.67	    49.301
   9.000	    225.00	    43.301
   9.020	    266.67	    47.140
   9.040	    233.33	    44.096
   9.060	    200.00	    40.825
   9.080	    200.00	    40.825
   9.100	    300.00	    50.000
   9.120	    183.33	    39.087
   9.140	    225.00	    43.301
   9.160	    216.67	    42.492
   9.180	    341.67	    53.359
   9.200	    216.67	    42.492
   9.220	    308.33	    50.690
   9.240	    266.67	    47.140
   9.260	    241.67	    44.876
   9.280	    275.00	    47.871
   9.300	    166.67	    37.268
   9.320	    300.00	    50.000
   9.340	    233.33	    44.096
   9.360	    208.33	    41.667
   9.380	    266.67	    47.140
   9.400	    283.33	    48.591
   9.420	    283.33	    48.591
   9.440	    283.33	    48.591
   9.460	    283.33	    48.591
   9.480	    225.00	    43.301
   9.500	    191.67	    39.965
   9.520	    175.00	    38.188
   9.540	    250.00	    45.644
   9.560	    266.67	    47.140
   9.580	    250.00	    45.644
   9.600	    200.00	    40.825
   9.620	    233.33	    44.096
   9.640	    258.33	    46.398
   9.660	    316.67	    51.370
   9.680	    266.67	    47.140
   9.700	    233.33	    44.096
   9.720	    241.67	    44.876
   9.740	    316.67	    51.370
   9.760	    283.33	    48.591
   9.780	    158.33	    36.324
   9.800	    266.67	    47.140
   9.820	    250.00	    45.644
   9.840	    300.00	    50.000
   9.860	    275.00	    47.871
   9.880	    275.00	    47.871
   9.900	    233.33	    44.096
   9.920	    266.67	    47.140
   9.940	    208.33	    41.667
   9.960	    216.67	    42.492
   9.980	    258.33	    46.398
  10.000	    241.67	    44.876
  10.020	    291.67	    49.301
  10.040	    275.00	    47.871
  10.060	    191.67	    39.965
  10.080	    283.33	    48.591
  10.100	    358.33	    54.645
  10.120	    250.00	    45.644
  10.140	    300.00	    50.000
  10.160	    291.67	    49.301
  10.180	    241.67	    44.876
  10.200	    316.67	    51.370
  10.220	    325.00	    52.042
  10.240	    208.33	    41.667
  10.260	    241.67	    44.876
  10.280	    225.00	    43.301
  10.300	    300.00	    50.000
  10.320	    291.67	    49.301
  10.340	    275.00	    47.871
  10.360	    258.33	    46.398
  10.380	    216.67	    42.492
  10.400	    300.00	    50.000
  10.420	    308.33	    50.690
  10.440	    266.67	    47.140
  10.460	    325.00	    52.042
  10.480	    291.67	    49.301
  10.500	    316.67	    51.370
  10.520	    350.00	    54.006
  10.540	    366.67	    55.277
  10.560	    216.67	    42.492
  10.580	    241.67	    44.876
  10.600	    366.67	    55.277
  10.620	    133.33	    33.333
  10.640	    266.67	    47.140
  10.660	    216.67	    42.492
  10.680	    191.67	    39.965
  10.700	    275.00	    47.871
  10.720	    275.00	    47.871
  10.740	    266.67	    47.140
  10.760	    316.67	    51.370
  10.780	    266.67	    47.140
  10.800	    216.67	    42.492
  10.820	    308.33	    50.690
  10.840	    275.00	    47.871
  10.860	    275.00	    47.871
  10.880	    300.00	    50.000
  10.900	    208.33	    41.667
  10.920	    225.00	    43.301
  10.940	    208.33	    41.667
  10.960	    308.33	    50.690
  10.980	    250.00	    45.644
  11.000	    308.33	    50.690
  11.020	    283.33	    48.591
  11.040	    150.00	    35.355
  11.060	    275.00	    47.871
  11.080	    383.33	    56.519
  11.100	    291.67	    49.301
  11.120	    308.33	    50.690
  11.140	    316.67	    51.370
  11.160	    225.00	    43.301
  11.180	    250.00	    45.644
  11.200	    258.33	    46.398
  11.220	    233.33	    44.096
  11.240	    291.67	    49.301
  11.260	    208.33	    41.667
  11.280	    250.00	    45.644
  11.300	    233.33	    44.096
  11.320	    241.67	    44.876
  11.340	    241.67	    44.876
  11.360	    225.00	    43.301
  11.380	    216.67	    42.492
  11.400	    258.33	    46.398
  11.420	    283.33	    48.591
  11.440	    266.67	    47.140
  11.460	    325.00	    52.042
  11.480	    291.67	    49.301
  11.500	    308.33	    50.690
  11.520	    366.67	    55.277
  11.540	    275.00	    47.871
  11.560	    258.33	    46.398
  11.580	    216.67	    42.492
  11.600	    241.67	    44.876
  11.620	    325.00	    52.042
  11.640	    325.00	    52.042
  11.660	    275.00	    47.871
  11.680	    358.33	    54.645
  11.700	    200.00	    40.825
  11.720	    325.00	    52.042
  11.740	    233.33	    44.096
  11.760	    316.67	    51.370
  11.780	    333.33	    52.705
  11.800	    225.00	    43.301
  11.820	    400.00	    57.735
  11.840	    233.33	    44.096
  11.860	    241.67	    44.876
  11.880	    291.67	    49.301
  11.900	    358.33	    54.645
  11.920	    341.67	    53.359
  11.940	    275.00	    47.871
  11.960	    208.33	    41.667
  11.980	    250.00	    45.644
  12.000	    300.00	    50.000
  12.020	    283.33	    48.591
  12.040	    325.00	    52.042
  12.060	    258.33	    46.398
  12.080	    225.00	    43.301
  12.100	    275.00	    47.871
  12.120	    216.67	    42.492
  12.140	    300.00	    50.000
  12.160	    333.33	    52.705
  12.180	    208.33	    41.667
  12.200	    333.33	    52.705
  12.220	    308.33	    50.690
  12.240	    216.67	    42.492
  12.260	    283.33	    48.591
  12.280	    283.33	    48.591
  12.300	    250.00	    45.644
  12.320	    400.00	    57.735
  12.340	    258.33	    46.398
  12.360	    233.33	    44.096
  12.380	    291.67	    49.301
  12.400	    191.67	    39.965
  12.420	    291.67	    49.301
  12.440	    316.67	    51.370
  12.460	    283.33	    48.591
  12.480	    383.33	    56.519
  12.500	    291.67	    49.301
  12.520	    258.33	    46.398
  12.540	    291.67	    49.301
  12.560	    216.67	    42.492
  12.580	    208.33	    41.667
  12.600	    225.00	    43.301
  12.620	    341.67	    53.359
  12.640	    258.33	    46.398
  12.660	    241.67	    44.876
  12.680	    316.67	    51.370
  12.700	    241.67	    44.876
  12.720	    300.00	    50.000
  12.740	    308.33	    50.690
  12.760	    266.67	    47.140
  12.780	    366.67	    55.277
  12.800	    283.33	    48.591
  12.820	    308.33	    50.690
  12.840	    325.00	    52.042
  12.860	    233.33	    44.096
  12.880	    300.00	    50.000
  12.900	    283.33	    48.591
  12.920	    325.00	    52.042
  12.940	    275.00	    47.871
  12.960	    258.33	    46.398
  12.980	    308.33	    50.690
  13.000	    291.67	    49.301
  13.020	    275.00	    47.871
  13.040	    225.00	    43.301
  13.060	    308.33	    50.690
  13.080	    283.33	    48.591
  13.100	    325.00	    52.042
  13.120	    208.33	    41.667
  13.140	    258.33	    46.398
  13.160	    366.67	    55.277
  13.180	    183.33	    39.087
  13.200	    358.33	    54.645
  13.220	    258.33	    46.398
  13.240	    158.33	    36.324
  13.260	    341.67	    53.359
  13.280	    325.00	    52.042
  13.300	    358.33	    54.645
  13.320	    300.00	    50.000
  13.340	    350.00	    54.006
  13.360	    316.67	    51.370
  13.380	    275.00	    47.871
  13.400	    283.33	    48.591
  13.420	    375.00	    55.902
  13.440	    283.33	    48.591
  13.460	    258.33	    46.398
  13.480	    391.67	    57.130
  13.500	    275.00	    47.871
  13.520	    258.33	    46.398
  13.540	    291.67	    49.301
  13.560	    350.00	    54.006
  13.580	    375.00	    55.902
  13.600	    258.33	    46.398
  13.620	    325.00	    52.042
  13.640	    283.33	    48.591
  13.660	    275.00	    47.871
  13.680	    308.33	    50.690
  13.700	    283.33	    48.591
  13.720	    316.67	    51.370
  13.740	    325.00	    52.042
  13.760	    308.33	    50.690
  13.780	    375.00	    55.902
  13.800	    283.33	    48.591
  13.820	    250.00	    45.644
  13.840	    266.67	    47.140
  13.860	    241.67	    44.876
  13.880	    300.00	    50.000
  13.900	    241.67	    44.876
  13.920	    266.67	    47.140
  13.940	    383.33	    56.519
  13.960	    258.33	    46.398
  13.980	    375.00	    55.902
  14.000	    325.00	    52.042
  14.020	    350.00	    54.006
  14.040	    225.00	    43.301
  14.060	    283.33	    48.591
  14.080	    383.33	    56.519
  14.100	    300.00	    50.000
  14.120	    425.00	    59.512
  14.140	    400.00	    57.735
  14.160	    333.33	    52.705
  14.180	    225.00	    43.301
  14.200	    358.33	    54.645
  14.220	    358.33	    54.645
  14.240	    325.00	    52.042
  14.260	    333.33	    52.705
  14.280	    250.00	    45.644
  14.300	    308.33	    50.690
  14.320	    333.33	    52.705
  14.340	    350.00	    54.006
  14.360	    283.33	    48.591
  14.380	    391.67	    57.130
  14.400	    325.00	    52.042
  14.420	    208.33	    41.667
  14.440	    250.00	    45.644
  14.460	    433.33	    60.093
  14.480	    400.00	    57.735
  14.500	    308.33	    50.690
  14.520	    341.67	    53.359
  14.540	    358.33	    54.645
  14.560	    366.67	    55.277
  14.580	    358.33	    54.645
  14.600	    316.67	    51.370
  14.620	    183.33	    39.087
  14.640	    283.33	    48.591
  14.660	    283.33	    48.591
  14.680	    275.00	    47.871
  14.700	    316.67	    51.370
  14.720	    375.00	    55.902
  14.740	    391.67	    57.130
  14.760	    291.67	    49.301
  14.780	    283.33	    48.591
  14.800	    350.00	    54.006
  14.820	    266.67	    47.140
  14.840	    283.33	    48.591
  14.860	    241.67	    44.876
  14.880	    333.33	    52.705
  14.900	    283.33	    48.591
  14.920	    266.67	    47.140
  14.940	    241.67	    44.876
  14.960	    325.00	    52.042
  14.980	    250.00	    45.644
  15.000	    366.67	    55.277
  15.020	    216.67	    42.492
  15.040	    400.00	    57.735
  15.060	    308.33	    50.690
  15.080	    283.33	    48.591
  15.100	    350.00	    54.006
  15.120	    291.67	    49.301
  15.140	    358.33	    54.645
  15.160	    350.00	    54.006
  15.180	    308.33	    50.690
  15.200	    283.33	    48.591
  15.220	    308.33	    50.690
  15.240	    300.00	    50.000
  15.260	    408.33	    58.333
  15.280	    300.00	    50.000
  15.300	    275.00	    47.871
  15.320	    241.67	    44.876
  15.340	    291.67	    49.301
  15.360	    308.33	    50.690
  15.380	    300.00	    50.000
  15.400	    350.00	    54.006
  15.420	    341.67	    53.359
  15.440	    416.67	    58.926
  15.460	    266.67	    47.140
  15.480	    316.67	    51.370
  15.500	    308.33	    50.690
  15.520	    350.00	    54.006
  15.540	    341.67	    53.359
  15.560	    433.33	    60.093
  15.580	    316.67	    51.370
  15.600	    250.00	    45.644
  15.620	    408.33	    58.333
  15.640	    291.67	    49.301
  15.660	    341.67	    53.359
  15.680	    325.00	    52.042
  15.700	    250.00	    45.644
  15.720	    291.67	    49.301
  15.740	    291.67	    49.301
  15.760	    425.00	    59.512
  15.780	    425.00	    59.512
  15.800	    358.33	    54.645
  15.820	    291.67	    49.301
  15.840	    333.33	    52.705
  15.860	    408.33	    58.333
  15.880	    258.33	    46.398
  15.900	    358.33	    54.645
  15.920	    341.67	    53.359
  15.940	    333.33	    52.705
  15.960	    308.33	    50.690
  15.980	    450.00	    61.237
  16.000	    383.33	    56.519
  16.020	    250.00	    45.644
  16.040	    366.67	    55.277
  16.060	    400.00	    57.735
  16.080	    283.33	    48.591
  16.100	    333.33	    52.705
  16.120	    391.67	    57.130
  16.140	    366.67	    55.277
  16.160	    275.00	    47.871
  16.180	    291.67	    49.301
  16.200	    325.00	    52.042
  16.220	    325.00	    52.042
  16.240	    233.33	    44.096
  16.260	    350.00	    54.006
  16.280	    400.00	    57.735
