         ID: 

    Comment: 

Scan Type: Normal
Start Angle: 5 deg.
Stop Angle: 100 deg.
Num Points: 4751
Step Size: 0.02 deg.
Datafile Res: 1600 
Scan Rate: 10.000000
Scan Mode: Continuous
Wavelength: 1.540562

Diffractometer Optics:
		Detector:
			 Type: Fixed Slits
			 X2 Configuration: No
		Tube: 
			 Type: Fixed Slits
			 X2 Configuration: No


Axis[0]
	 Selected   : no 
	 Iterative  : no 
	 Start Angle: 0.000000 
	 Stop Angle : 0.000000 
	 Step Size  : 0.000000 
	 Oscillating: no 

Axis[1]
	 Selected   : no 
	 Iterative  : no 
	 Start Angle: 0.000000 
	 Stop Angle : 0.000000 
	 Step Size  : 0.000000 
	 Oscillating: no 

Axis[2]
	 Selected   : no 
	 Iterative  : no 
	 Start Angle: 0.000000 
	 Stop Angle : 0.000000 
	 Step Size  : 0.000000 
	 Oscillating: no 

Axis[3]
	 Selected   : no 
	 Iterative  : no 
	 Start Angle: 0.000000 
	 Stop Angle : 0.000000 
	 Step Size  : 0.000000 
	 Oscillating: no 

Axis[4]
	 Selected   : no 
	 Iterative  : no 
	 Start Angle: 0.000000 
	 Stop Angle : 0.000000 
	 Step Size  : 0.000000 
	 Oscillating: no 

Axis[5]
	 Selected   : no 
	 Iterative  : no 
	 Start Angle: 0.000000 
	 Stop Angle : 0.000000 
	 Step Size  : 0.000000 
	 Oscillating: no 

Axis[6]
	 Selected   : no 
	 Iterative  : no 
	 Start Angle: 0.000000 
	 Stop Angle : 0.000000 
	 Step Size  : 0.000000 
	 Oscillating: no 

Axis[7]
	 Selected   : no 
	 Iterative  : no 
	 Start Angle: 0.000000 
	 Stop Angle : 0.000000 
	 Step Size  : 0.000000 
	 Oscillating: no 

Axis[8]
	 Selected   : no 
	 Iterative  : no 
	 Start Angle: 0.000000 
	 Stop Angle : 0.000000 
	 Step Size  : 0.000000 
	 Oscillating: no 

Axis[9]
	 Selected   : no 
	 Iterative  : no 
	 Start Angle: 0.000000 
	 Stop Angle : 0.000000 
	 Step Size  : 0.000000 
	 Oscillating: no 




	   Deg.      CPS  	    ESD   

Range 0
   5.000	    200.00	    40.825
   5.020	    225.00	    43.301
   5.040	    275.00	    47.871
   5.060	    358.33	    54.645
   5.080	    283.33	    48.591
   5.100	    225.00	    43.301
   5.120	    233.33	    44.096
   5.140	    275.00	    47.871
   5.160	    375.00	    55.902
   5.180	    191.67	    39.965
   5.200	    250.00	    45.644
   5.220	    208.33	    41.667
   5.240	    266.67	    47.140
   5.260	    241.67	    44.876
   5.280	    208.33	    41.667
   5.300	    241.67	    44.876
   5.320	    208.33	    41.667
   5.340	    275.00	    47.871
   5.360	    225.00	    43.301
   5.380	    300.00	    50.000
   5.400	    266.67	    47.140
   5.420	    275.00	    47.871
   5.440	    216.67	    42.492
   5.460	    250.00	    45.644
   5.480	    283.33	    48.591
   5.500	    241.67	    44.876
   5.520	    258.33	    46.398
   5.540	    233.33	    44.096
   5.560	    216.67	    42.492
   5.580	    191.67	    39.965
   5.600	    300.00	    50.000
   5.620	    183.33	    39.087
   5.640	    258.33	    46.398
   5.660	    233.33	    44.096
   5.680	    158.33	    36.324
   5.700	    150.00	    35.355
   5.720	    241.67	    44.876
   5.740	    208.33	    41.667
   5.760	    166.67	    37.268
   5.780	    250.00	    45.644
   5.800	    216.67	    42.492
   5.820	    225.00	    43.301
   5.840	    216.67	    42.492
   5.860	    283.33	    48.591
   5.880	    216.67	    42.492
   5.900	    266.67	    47.140
   5.920	    191.67	    39.965
   5.940	    175.00	    38.188
   5.960	    275.00	    47.871
   5.980	    241.67	    44.876
   6.000	    283.33	    48.591
   6.020	    200.00	    40.825
   6.040	    175.00	    38.188
   6.060	    150.00	    35.355
   6.080	    233.33	    44.096
   6.100	    175.00	    38.188
   6.120	    200.00	    40.825
   6.140	    208.33	    41.667
   6.160	    150.00	    35.355
   6.180	    250.00	    45.644
   6.200	    175.00	    38.188
   6.220	    125.00	    32.275
   6.240	    266.67	    47.140
   6.260	    200.00	    40.825
   6.280	    175.00	    38.188
   6.300	    175.00	    38.188
   6.320	    166.67	    37.268
   6.340	    175.00	    38.188
   6.360	    275.00	    47.871
   6.380	    200.00	    40.825
   6.400	    233.33	    44.096
   6.420	    183.33	    39.087
   6.440	    125.00	    32.275
   6.460	    166.67	    37.268
   6.480	    208.33	    41.667
   6.500	    208.33	    41.667
   6.520	    166.67	    37.268
   6.540	    191.67	    39.965
   6.560	    241.67	    44.876
   6.580	    233.33	    44.096
   6.600	    116.67	    31.180
   6.620	    158.33	    36.324
   6.640	    183.33	    39.087
   6.660	    191.67	    39.965
   6.680	    158.33	    36.324
   6.700	    225.00	    43.301
   6.720	    116.67	    31.180
   6.740	    208.33	    41.667
   6.760	    141.67	    34.359
   6.780	    191.67	    39.965
   6.800	    241.67	    44.876
   6.820	    233.33	    44.096
   6.840	    125.00	    32.275
   6.860	    191.67	    39.965
   6.880	    200.00	    40.825
   6.900	    158.33	    36.324
   6.920	    233.33	    44.096
   6.940	    216.67	    42.492
   6.960	    233.33	    44.096
   6.980	    175.00	    38.188
   7.000	    225.00	    43.301
   7.020	    183.33	    39.087
   7.040	     75.00	    25.000
   7.060	    133.33	    33.333
   7.080	    183.33	    39.087
   7.100	    191.67	    39.965
   7.120	    191.67	    39.965
   7.140	    200.00	    40.825
   7.160	    175.00	    38.188
   7.180	    166.67	    37.268
   7.200	    133.33	    33.333
   7.220	    108.33	    30.046
   7.240	    158.33	    36.324
   7.260	    141.67	    34.359
   7.280	    116.67	    31.180
   7.300	    191.67	    39.965
   7.320	    141.67	    34.359
   7.340	    150.00	    35.355
   7.360	    183.33	    39.087
   7.380	    225.00	    43.301
   7.400	    150.00	    35.355
   7.420	    191.67	    39.965
   7.440	    116.67	    31.180
   7.460	    158.33	    36.324
   7.480	    141.67	    34.359
   7.500	    183.33	    39.087
   7.520	    191.67	    39.965
   7.540	    175.00	    38.188
   7.560	    158.33	    36.324
   7.580	    150.00	    35.355
   7.600	    133.33	    33.333
   7.620	    133.33	    33.333
   7.640	    125.00	    32.275
   7.660	    216.67	    42.492
   7.680	    175.00	    38.188
   7.700	    166.67	    37.268
   7.720	    175.00	    38.188
   7.740	    133.33	    33.333
   7.760	    116.67	    31.180
   7.780	    191.67	    39.965
   7.800	    175.00	    38.188
   7.820	    225.00	    43.301
   7.840	    100.00	    28.868
   7.860	    191.67	    39.965
   7.880	    175.00	    38.188
   7.900	    158.33	    36.324
   7.920	    183.33	    39.087
   7.940	    150.00	    35.355
   7.960	    116.67	    31.180
   7.980	    200.00	    40.825
   8.000	    133.33	    33.333
   8.020	    150.00	    35.355
   8.040	    183.33	    39.087
   8.060	    166.67	    37.268
   8.080	    175.00	    38.188
   8.100	    150.00	    35.355
   8.120	    175.00	    38.188
   8.140	    208.33	    41.667
   8.160	    191.67	    39.965
   8.180	    150.00	    35.355
   8.200	    175.00	    38.188
   8.220	    208.33	    41.667
   8.240	    141.67	    34.359
   8.260	    100.00	    28.868
   8.280	    100.00	    28.868
   8.300	    158.33	    36.324
   8.320	    150.00	    35.355
   8.340	    150.00	    35.355
   8.360	    141.67	    34.359
   8.380	    175.00	    38.188
   8.400	    125.00	    32.275
   8.420	    166.67	    37.268
   8.440	    125.00	    32.275
   8.460	    216.67	    42.492
   8.480	     75.00	    25.000
   8.500	    183.33	    39.087
   8.520	    108.33	    30.046
   8.540	    225.00	    43.301
   8.560	    175.00	    38.188
   8.580	    166.67	    37.268
   8.600	    158.33	    36.324
   8.620	    108.33	    30.046
   8.640	    233.33	    44.096
   8.660	    166.67	    37.268
   8.680	    166.67	    37.268
   8.700	    116.67	    31.180
   8.720	    116.67	    31.180
   8.740	    216.67	    42.492
   8.760	    158.33	    36.324
   8.780	    183.33	    39.087
   8.800	    191.67	    39.965
   8.820	    166.67	    37.268
   8.840	    116.67	    31.180
   8.860	    108.33	    30.046
   8.880	    225.00	    43.301
   8.900	    216.67	    42.492
   8.920	    166.67	    37.268
   8.940	    191.67	    39.965
   8.960	    208.33	    41.667
   8.980	    216.67	    42.492
   9.000	    175.00	    38.188
   9.020	    166.67	    37.268
   9.040	    166.67	    37.268
   9.060	    183.33	    39.087
   9.080	    183.33	    39.087
   9.100	    125.00	    32.275
   9.120	    141.67	    34.359
   9.140	    191.67	    39.965
   9.160	    166.67	    37.268
   9.180	    200.00	    40.825
   9.200	    108.33	    30.046
   9.220	    158.33	    36.324
   9.240	    116.67	    31.180
   9.260	    241.67	    44.876
   9.280	    158.33	    36.324
   9.300	    150.00	    35.355
   9.320	    150.00	    35.355
   9.340	    116.67	    31.180
   9.360	    166.67	    37.268
   9.380	    200.00	    40.825
   9.400	    133.33	    33.333
   9.420	    158.33	    36.324
   9.440	    191.67	    39.965
   9.460	    150.00	    35.355
   9.480	    183.33	    39.087
   9.500	    108.33	    30.046
   9.520	    108.33	    30.046
   9.540	    141.67	    34.359
   9.560	    208.33	    41.667
   9.580	    175.00	    38.188
   9.600	    166.67	    37.268
   9.620	    116.67	    31.180
   9.640	    208.33	    41.667
   9.660	    133.33	    33.333
   9.680	    125.00	    32.275
   9.700	    141.67	    34.359
   9.720	    166.67	    37.268
   9.740	    191.67	    39.965
   9.760	     83.33	    26.352
   9.780	     83.33	    26.352
   9.800	    216.67	    42.492
   9.820	    141.67	    34.359
   9.840	    175.00	    38.188
   9.860	    141.67	    34.359
   9.880	    133.33	    33.333
   9.900	    150.00	    35.355
   9.920	    158.33	    36.324
   9.940	    116.67	    31.180
   9.960	    158.33	    36.324
   9.980	    175.00	    38.188
  10.000	    141.67	    34.359
  10.020	    141.67	    34.359
  10.040	    141.67	    34.359
  10.060	    141.67	    34.359
  10.080	    158.33	    36.324
  10.100	    183.33	    39.087
  10.120	    191.67	    39.965
  10.140	    266.67	    47.140
  10.160	    116.67	    31.180
  10.180	    208.33	    41.667
  10.200	    141.67	    34.359
  10.220	    150.00	    35.355
  10.240	    141.67	    34.359
  10.260	    175.00	    38.188
  10.280	    175.00	    38.188
  10.300	    175.00	    38.188
  10.320	    225.00	    43.301
  10.340	    108.33	    30.046
  10.360	    158.33	    36.324
  10.380	    216.67	    42.492
  10.400	    150.00	    35.355
  10.420	    141.67	    34.359
  10.440	    141.67	    34.359
  10.460	    175.00	    38.188
  10.480	    166.67	    37.268
  10.500	    141.67	    34.359
  10.520	    158.33	    36.324
  10.540	    158.33	    36.324
  10.560	    125.00	    32.275
  10.580	    108.33	    30.046
  10.600	    125.00	    32.275
  10.620	    166.67	    37.268
  10.640	    150.00	    35.355
  10.660	    200.00	    40.825
  10.680	    158.33	    36.324
  10.700	    216.67	    42.492
  10.720	    183.33	    39.087
  10.740	    216.67	    42.492
  10.760	    200.00	    40.825
  10.780	    175.00	    38.188
  10.800	    125.00	    32.275
  10.820	    150.00	    35.355
  10.840	    183.33	    39.087
  10.860	    175.00	    38.188
  10.880	    225.00	    43.301
  10.900	    125.00	    32.275
  10.920	    175.00	    38.188
  10.940	    116.67	    31.180
  10.960	    141.67	    34.359
  10.980	    183.33	    39.087
  11.000	    175.00	    38.188
  11.020	    175.00	    38.188
  11.040	    133.33	    33.333
  11.060	     83.33	    26.352
  11.080	    133.33	    33.333
  11.100	    183.33	    39.087
  11.120	    191.67	    39.965
  11.140	    141.67	    34.359
  11.160	    225.00	    43.301
  11.180	    183.33	    39.087
  11.200	    150.00	    35.355
  11.220	    183.33	    39.087
  11.240	    125.00	    32.275
  11.260	    133.33	    33.333
  11.280	    175.00	    38.188
  11.300	    125.00	    32.275
  11.320	    141.67	    34.359
  11.340	    158.33	    36.324
  11.360	    133.33	    33.333
  11.380	    133.33	    33.333
  11.400	    158.33	    36.324
  11.420	    133.33	    33.333
  11.440	    150.00	    35.355
  11.460	    158.33	    36.324
  11.480	     91.67	    27.639
  11.500	    125.00	    32.275
  11.520	    208.33	    41.667
  11.540	    133.33	    33.333
  11.560	    158.33	    36.324
  11.580	    175.00	    38.188
  11.600	    283.33	    48.591
  11.620	    133.33	    33.333
  11.640	    166.67	    37.268
  11.660	    150.00	    35.355
  11.680	    175.00	    38.188
  11.700	    141.67	    34.359
  11.720	    125.00	    32.275
  11.740	    125.00	    32.275
  11.760	    191.67	    39.965
  11.780	    191.67	    39.965
  11.800	    175.00	    38.188
  11.820	    233.33	    44.096
  11.840	    133.33	    33.333
  11.860	    150.00	    35.355
  11.880	    175.00	    38.188
  11.900	    166.67	    37.268
  11.920	    100.00	    28.868
  11.940	    258.33	    46.398
  11.960	    150.00	    35.355
  11.980	    125.00	    32.275
  12.000	    125.00	    32.275
  12.020	    183.33	    39.087
  12.040	    166.67	    37.268
  12.060	    166.67	    37.268
  12.080	    225.00	    43.301
  12.100	    150.00	    35.355
  12.120	    233.33	    44.096
  12.140	    133.33	    33.333
  12.160	     75.00	    25.000
  12.180	    166.67	    37.268
  12.200	    158.33	    36.324
  12.220	    175.00	    38.188
  12.240	     91.67	    27.639
  12.260	    158.33	    36.324
  12.280	    150.00	    35.355
  12.300	    200.00	    40.825
  12.320	     75.00	    25.000
  12.340	    216.67	    42.492
  12.360	    141.67	    34.359
  12.380	    100.00	    28.868
  12.400	    208.33	    41.667
  12.420	    116.67	    31.180
  12.440	    125.00	    32.275
  12.460	    158.33	    36.324
  12.480	    175.00	    38.188
  12.500	    158.33	    36.324
  12.520	    183.33	    39.087
  12.540	    175.00	    38.188
  12.560	    141.67	    34.359
  12.580	    158.33	    36.324
  12.600	    116.67	    31.180
  12.620	    175.00	    38.188
  12.640	    141.67	    34.359
  12.660	    158.33	    36.324
  12.680	    191.67	    39.965
  12.700	    150.00	    35.355
  12.720	    191.67	    39.965
  12.740	    191.67	    39.965
  12.760	    166.67	    37.268
  12.780	     91.67	    27.639
  12.800	    108.33	    30.046
  12.820	    125.00	    32.275
  12.840	    141.67	    34.359
  12.860	    250.00	    45.644
  12.880	    191.67	    39.965
  12.900	    175.00	    38.188
  12.920	    175.00	    38.188
  12.940	     91.67	    27.639
  12.960	    233.33	    44.096
  12.980	    216.67	    42.492
  13.000	    158.33	    36.324
  13.020	    150.00	    35.355
  13.040	    166.67	    37.268
  13.060	    191.67	    39.965
  13.080	    183.33	    39.087
  13.100	    183.33	    39.087
  13.120	    208.33	    41.667
  13.140	    166.67	    37.268
  13.160	    133.33	    33.333
  13.180	    191.67	    39.965
  13.200	    166.67	    37.268
  13.220	    125.00	    32.275
  13.240	    166.67	    37.268
  13.260	    133.33	    33.333
  13.280	    216.67	    42.492
  13.300	    183.33	    39.087
  13.320	    166.67	    37.268
  13.340	    116.67	    31.180
  13.360	    191.67	    39.965
  13.380	    158.33	    36.324
  13.400	    258.33	    46.398
  13.420	    133.33	    33.333
  13.440	    166.67	    37.268
  13.460	    116.67	    31.180
  13.480	    125.00	    32.275
  13.500	    158.33	    36.324
  13.520	    175.00	    38.188
  13.540	    166.67	    37.268
  13.560	    166.67	    37.268
  13.580	    141.67	    34.359
  13.600	    141.67	    34.359
  13.620	    150.00	    35.355
  13.640	    266.67	    47.140
  13.660	    158.33	    36.324
  13.680	    191.67	    39.965
  13.700	    216.67	    42.492
  13.720	    116.67	    31.180
  13.740	    141.67	    34.359
  13.760	    166.67	    37.268
  13.780	    200.00	    40.825
  13.800	    166.67	    37.268
  13.820	    150.00	    35.355
  13.840	    200.00	    40.825
  13.860	    175.00	    38.188
  13.880	    141.67	    34.359
  13.900	    175.00	    38.188
  13.920	    141.67	    34.359
  13.940	    150.00	    35.355
  13.960	    175.00	    38.188
  13.980	    125.00	    32.275
  14.000	    208.33	    41.667
  14.020	    116.67	    31.180
  14.040	    166.67	    37.268
  14.060	    208.33	    41.667
  14.080	    166.67	    37.268
  14.100	    208.33	    41.667
  14.120	    200.00	    40.825
  14.140	    133.33	    33.333
  14.160	    183.33	    39.087
  14.180	    150.00	    35.355
  14.200	    166.67	    37.268
  14.220	    158.33	    36.324
  14.240	    108.33	    30.046
  14.260	    150.00	    35.355
  14.280	    191.67	    39.965
  14.300	    200.00	    40.825
  14.320	    175.00	    38.188
  14.340	    116.67	    31.180
  14.360	    158.33	    36.324
  14.380	    191.67	    39.965
  14.400	    208.33	    41.667
  14.420	    183.33	    39.087
  14.440	    191.67	    39.965
  14.460	    116.67	    31.180
  14.480	    208.33	    41.667
  14.500	    133.33	    33.333
  14.520	    166.67	    37.268
  14.540	    200.00	    40.825
  14.560	    150.00	    35.355
  14.580	    191.67	    39.965
  14.600	    241.67	    44.876
  14.620	    175.00	    38.188
  14.640	     91.67	    27.639
  14.660	    200.00	    40.825
  14.680	    191.67	    39.965
  14.700	    150.00	    35.355
  14.720	    166.67	    37.268
  14.740	    166.67	    37.268
  14.760	    216.67	    42.492
  14.780	    166.67	    37.268
  14.800	    158.33	    36.324
  14.820	    191.67	    39.965
  14.840	    200.00	    40.825
  14.860	    225.00	    43.301
  14.880	    166.67	    37.268
  14.900	    266.67	    47.140
  14.920	    166.67	    37.268
  14.940	    191.67	    39.965
  14.960	    250.00	    45.644
  14.980	    183.33	    39.087
  15.000	    191.67	    39.965
  15.020	    150.00	    35.355
  15.040	    200.00	    40.825
  15.060	    133.33	    33.333
  15.080	    216.67	    42.492
  15.100	    175.00	    38.188
  15.120	    283.33	    48.591
  15.140	    116.67	    31.180
  15.160	    150.00	    35.355
  15.180	    216.67	    42.492
  15.200	    200.00	    40.825
  15.220	    208.33	    41.667
  15.240	    175.00	    38.188
  15.260	    183.33	    39.087
  15.280	    216.67	    42.492
  15.300	    125.00	    32.275
  15.320	    141.67	    34.359
  15.340	    241.67	    44.876
  15.360	    241.67	    44.876
  15.380	    141.67	    34.359
  15.400	    216.67	    42.492
  15.420	    116.67	    31.180
  15.440	    141.67	    34.359
  15.460	    208.33	    41.667
  15.480	    241.67	    44.876
  15.500	    208.33	    41.667
  15.520	    116.67	    31.180
  15.540	    266.67	    47.140
  15.560	    141.67	    34.359
  15.580	    266.67	    47.140
  15.600	    158.33	    36.324
  15.620	    158.33	    36.324
  15.640	    133.33	    33.333
  15.660	    191.67	    39.965
  15.680	    216.67	    42.492
  15.700	    175.00	    38.188
  15.720	    241.67	    44.876
  15.740	    191.67	    39.965
  15.760	    225.00	    43.301
  15.780	    216.67	    42.492
  15.800	    241.67	    44.876
  15.820	    191.67	    39.965
  15.840	    175.00	    38.188
  15.860	    216.67	    42.492
  15.880	    241.67	    44.876
  15.900	    266.67	    47.140
  15.920	    241.67	    44.876
  15.940	    183.33	    39.087
  15.960	    200.00	    40.825
  15.980	    183.33	    39.087
  16.000	    200.00	    40.825
  16.020	    216.67	    42.492
  16.040	    183.33	    39.087
  16.060	    241.67	    44.876
  16.080	    250.00	    45.644
  16.100	    250.00	    45.644
  16.120	    233.33	    44.096
  16.140	    241.67	    44.876
  16.160	    191.67	    39.965
  16.180	    191.67	    39.965
  16.200	    191.67	    39.965
  16.220	    175.00	    38.188
  16.240	    183.33	    39.087
  16.260	    233.33	    44.096
  16.280	    308.33	    50.690
