         ID: 

    Comment: 

Scan Type: Normal
Start Angle: 5 deg.
Stop Angle: 100 deg.
Num Points: 4751
Step Size: 0.02 deg.
Datafile Res: 1600 
Scan Rate: 10.000000
Scan Mode: Continuous
Wavelength: 1.540562

Diffractometer Optics:
		Detector:
			 Type: Fixed Slits
			 X2 Configuration: No
		Tube: 
			 Type: Fixed Slits
			 X2 Configuration: No


Axis[0]
	 Selected   : no 
	 Iterative  : no 
	 Start Angle: 0.000000 
	 Stop Angle : 0.000000 
	 Step Size  : 0.000000 
	 Oscillating: no 

Axis[1]
	 Selected   : no 
	 Iterative  : no 
	 Start Angle: 0.000000 
	 Stop Angle : 0.000000 
	 Step Size  : 0.000000 
	 Oscillating: no 

Axis[2]
	 Selected   : no 
	 Iterative  : no 
	 Start Angle: 0.000000 
	 Stop Angle : 0.000000 
	 Step Size  : 0.000000 
	 Oscillating: no 

Axis[3]
	 Selected   : no 
	 Iterative  : no 
	 Start Angle: 0.000000 
	 Stop Angle : 0.000000 
	 Step Size  : 0.000000 
	 Oscillating: no 

Axis[4]
	 Selected   : no 
	 Iterative  : no 
	 Start Angle: 0.000000 
	 Stop Angle : 0.000000 
	 Step Size  : 0.000000 
	 Oscillating: no 

Axis[5]
	 Selected   : no 
	 Iterative  : no 
	 Start Angle: 0.000000 
	 Stop Angle : 0.000000 
	 Step Size  : 0.000000 
	 Oscillating: no 

Axis[6]
	 Selected   : no 
	 Iterative  : no 
	 Start Angle: 0.000000 
	 Stop Angle : 0.000000 
	 Step Size  : 0.000000 
	 Oscillating: no 

Axis[7]
	 Selected   : no 
	 Iterative  : no 
	 Start Angle: 0.000000 
	 Stop Angle : 0.000000 
	 Step Size  : 0.000000 
	 Oscillating: no 

Axis[8]
	 Selected   : no 
	 Iterative  : no 
	 Start Angle: 0.000000 
	 Stop Angle : 0.000000 
	 Step Size  : 0.000000 
	 Oscillating: no 

Axis[9]
	 Selected   : no 
	 Iterative  : no 
	 Start Angle: 0.000000 
	 Stop Angle : 0.000000 
	 Step Size  : 0.000000 
	 Oscillating: no 




	   Deg.      CPS  	    ESD   

Range 0
   5.000	    225.00	    43.301
   5.020	    191.67	    39.965
   5.040	    208.33	    41.667
   5.060	    233.33	    44.096
   5.080	    316.67	    51.370
   5.100	    216.67	    42.492
   5.120	    225.00	    43.301
   5.140	    308.33	    50.690
   5.160	    275.00	    47.871
   5.180	    241.67	    44.876
   5.200	    225.00	    43.301
   5.220	    233.33	    44.096
   5.240	    250.00	    45.644
   5.260	    233.33	    44.096
   5.280	    225.00	    43.301
   5.300	    216.67	    42.492
   5.320	    183.33	    39.087
   5.340	    308.33	    50.690
   5.360	    191.67	    39.965
   5.380	    216.67	    42.492
   5.400	    200.00	    40.825
   5.420	    233.33	    44.096
   5.440	    250.00	    45.644
   5.460	    275.00	    47.871
   5.480	    225.00	    43.301
   5.500	    175.00	    38.188
   5.520	    233.33	    44.096
   5.540	    325.00	    52.042
   5.560	    308.33	    50.690
   5.580	    208.33	    41.667
   5.600	    258.33	    46.398
   5.620	    283.33	    48.591
   5.640	    200.00	    40.825
   5.660	    233.33	    44.096
   5.680	    191.67	    39.965
   5.700	    200.00	    40.825
   5.720	    191.67	    39.965
   5.740	    233.33	    44.096
   5.760	    183.33	    39.087
   5.780	    250.00	    45.644
   5.800	    291.67	    49.301
   5.820	    225.00	    43.301
   5.840	    241.67	    44.876
   5.860	    250.00	    45.644
   5.880	    216.67	    42.492
   5.900	    183.33	    39.087
   5.920	    291.67	    49.301
   5.940	    241.67	    44.876
   5.960	    158.33	    36.324
   5.980	    225.00	    43.301
   6.000	    200.00	    40.825
   6.020	    208.33	    41.667
   6.040	    216.67	    42.492
   6.060	    208.33	    41.667
   6.080	    216.67	    42.492
   6.100	    208.33	    41.667
   6.120	    325.00	    52.042
   6.140	    258.33	    46.398
   6.160	    166.67	    37.268
   6.180	    208.33	    41.667
   6.200	    200.00	    40.825
   6.220	    225.00	    43.301
   6.240	    225.00	    43.301
   6.260	    225.00	    43.301
   6.280	    208.33	    41.667
   6.300	    158.33	    36.324
   6.320	    225.00	    43.301
   6.340	    291.67	    49.301
   6.360	    175.00	    38.188
   6.380	    183.33	    39.087
   6.400	    250.00	    45.644
   6.420	    233.33	    44.096
   6.440	    191.67	    39.965
   6.460	    208.33	    41.667
   6.480	    183.33	    39.087
   6.500	    183.33	    39.087
   6.520	    200.00	    40.825
   6.540	    216.67	    42.492
   6.560	    233.33	    44.096
   6.580	    266.67	    47.140
   6.600	    216.67	    42.492
   6.620	    166.67	    37.268
   6.640	    158.33	    36.324
   6.660	    183.33	    39.087
   6.680	    183.33	    39.087
   6.700	    208.33	    41.667
   6.720	    158.33	    36.324
   6.740	    141.67	    34.359
   6.760	    158.33	    36.324
   6.780	    275.00	    47.871
   6.800	    233.33	    44.096
   6.820	    191.67	    39.965
   6.840	    191.67	    39.965
   6.860	    166.67	    37.268
   6.880	    183.33	    39.087
   6.900	    183.33	    39.087
   6.920	    250.00	    45.644
   6.940	    175.00	    38.188
   6.960	    216.67	    42.492
   6.980	    241.67	    44.876
   7.000	    166.67	    37.268
   7.020	    158.33	    36.324
   7.040	    166.67	    37.268
   7.060	    216.67	    42.492
   7.080	    158.33	    36.324
   7.100	    233.33	    44.096
   7.120	    158.33	    36.324
   7.140	    158.33	    36.324
   7.160	    183.33	    39.087
   7.180	    150.00	    35.355
   7.200	    183.33	    39.087
   7.220	    150.00	    35.355
   7.240	    208.33	    41.667
   7.260	    191.67	    39.965
   7.280	    141.67	    34.359
   7.300	    233.33	    44.096
   7.320	    166.67	    37.268
   7.340	    216.67	    42.492
   7.360	    175.00	    38.188
   7.380	    108.33	    30.046
   7.400	    141.67	    34.359
   7.420	    175.00	    38.188
   7.440	    116.67	    31.180
   7.460	    175.00	    38.188
   7.480	    258.33	    46.398
   7.500	    183.33	    39.087
   7.520	    133.33	    33.333
   7.540	    183.33	    39.087
   7.560	    175.00	    38.188
   7.580	    150.00	    35.355
   7.600	    116.67	    31.180
   7.620	    141.67	    34.359
   7.640	    133.33	    33.333
   7.660	    150.00	    35.355
   7.680	    225.00	    43.301
   7.700	    175.00	    38.188
   7.720	    216.67	    42.492
   7.740	    133.33	    33.333
   7.760	     91.67	    27.639
   7.780	    125.00	    32.275
   7.800	    125.00	    32.275
   7.820	    125.00	    32.275
   7.840	    175.00	    38.188
   7.860	    125.00	    32.275
   7.880	    241.67	    44.876
   7.900	    158.33	    36.324
   7.920	    158.33	    36.324
   7.940	    166.67	    37.268
   7.960	    116.67	    31.180
   7.980	    150.00	    35.355
   8.000	    200.00	    40.825
   8.020	    166.67	    37.268
   8.040	    141.67	    34.359
   8.060	    216.67	    42.492
   8.080	    125.00	    32.275
   8.100	    233.33	    44.096
   8.120	    208.33	    41.667
   8.140	    141.67	    34.359
   8.160	    158.33	    36.324
   8.180	    191.67	    39.965
   8.200	    133.33	    33.333
   8.220	    141.67	    34.359
   8.240	     91.67	    27.639
   8.260	    141.67	    34.359
   8.280	    133.33	    33.333
   8.300	    100.00	    28.868
   8.320	    266.67	    47.140
   8.340	    150.00	    35.355
   8.360	    141.67	    34.359
   8.380	    125.00	    32.275
   8.400	    166.67	    37.268
   8.420	    108.33	    30.046
   8.440	    150.00	    35.355
   8.460	    116.67	    31.180
   8.480	    158.33	    36.324
   8.500	    183.33	    39.087
   8.520	    133.33	    33.333
   8.540	    150.00	    35.355
   8.560	    183.33	    39.087
   8.580	    141.67	    34.359
   8.600	    191.67	    39.965
   8.620	    141.67	    34.359
   8.640	    150.00	    35.355
   8.660	    183.33	    39.087
   8.680	    200.00	    40.825
   8.700	    125.00	    32.275
   8.720	    166.67	    37.268
   8.740	    225.00	    43.301
   8.760	    158.33	    36.324
   8.780	    183.33	    39.087
   8.800	    200.00	    40.825
   8.820	    116.67	    31.180
   8.840	    150.00	    35.355
   8.860	    166.67	    37.268
   8.880	    166.67	    37.268
   8.900	    216.67	    42.492
   8.920	    166.67	    37.268
   8.940	    116.67	    31.180
   8.960	    158.33	    36.324
   8.980	    125.00	    32.275
   9.000	    175.00	    38.188
   9.020	    200.00	    40.825
   9.040	    250.00	    45.644
   9.060	    108.33	    30.046
   9.080	    116.67	    31.180
   9.100	    116.67	    31.180
   9.120	    158.33	    36.324
   9.140	    133.33	    33.333
   9.160	    166.67	    37.268
   9.180	    241.67	    44.876
   9.200	    183.33	    39.087
   9.220	    150.00	    35.355
   9.240	    208.33	    41.667
   9.260	    166.67	    37.268
   9.280	    166.67	    37.268
   9.300	    233.33	    44.096
   9.320	    233.33	    44.096
   9.340	    216.67	    42.492
   9.360	    141.67	    34.359
   9.380	    208.33	    41.667
   9.400	    158.33	    36.324
   9.420	    133.33	    33.333
   9.440	    208.33	    41.667
   9.460	    191.67	    39.965
   9.480	    216.67	    42.492
   9.500	    166.67	    37.268
   9.520	    191.67	    39.965
   9.540	    191.67	    39.965
   9.560	    208.33	    41.667
   9.580	    241.67	    44.876
   9.600	    141.67	    34.359
   9.620	    191.67	    39.965
   9.640	    175.00	    38.188
   9.660	    183.33	    39.087
   9.680	     58.33	    22.048
   9.700	    150.00	    35.355
   9.720	    225.00	    43.301
   9.740	    116.67	    31.180
   9.760	    141.67	    34.359
   9.780	    125.00	    32.275
   9.800	    166.67	    37.268
   9.820	    141.67	    34.359
   9.840	    183.33	    39.087
   9.860	    125.00	    32.275
   9.880	    225.00	    43.301
   9.900	    141.67	    34.359
   9.920	    133.33	    33.333
   9.940	    191.67	    39.965
   9.960	    166.67	    37.268
   9.980	    175.00	    38.188
  10.000	    141.67	    34.359
  10.020	    141.67	    34.359
  10.040	    141.67	    34.359
  10.060	    116.67	    31.180
  10.080	    158.33	    36.324
  10.100	    166.67	    37.268
  10.120	    141.67	    34.359
  10.140	    158.33	    36.324
  10.160	    200.00	    40.825
  10.180	    125.00	    32.275
  10.200	    225.00	    43.301
  10.220	    116.67	    31.180
  10.240	    133.33	    33.333
  10.260	    141.67	    34.359
  10.280	    116.67	    31.180
  10.300	    166.67	    37.268
  10.320	    166.67	    37.268
  10.340	    191.67	    39.965
  10.360	    133.33	    33.333
  10.380	    208.33	    41.667
  10.400	    141.67	    34.359
  10.420	    200.00	    40.825
  10.440	    116.67	    31.180
  10.460	    183.33	    39.087
  10.480	     83.33	    26.352
  10.500	    175.00	    38.188
  10.520	    191.67	    39.965
  10.540	    141.67	    34.359
  10.560	    158.33	    36.324
  10.580	    191.67	    39.965
  10.600	    191.67	    39.965
  10.620	    158.33	    36.324
  10.640	    208.33	    41.667
  10.660	    175.00	    38.188
  10.680	    183.33	    39.087
  10.700	    108.33	    30.046
  10.720	    116.67	    31.180
  10.740	    125.00	    32.275
  10.760	    108.33	    30.046
  10.780	    116.67	    31.180
  10.800	    125.00	    32.275
  10.820	    183.33	    39.087
  10.840	    108.33	    30.046
  10.860	    166.67	    37.268
  10.880	    141.67	    34.359
  10.900	    141.67	    34.359
  10.920	    125.00	    32.275
  10.940	    191.67	    39.965
  10.960	    183.33	    39.087
  10.980	    158.33	    36.324
  11.000	     83.33	    26.352
  11.020	    100.00	    28.868
  11.040	    183.33	    39.087
  11.060	    150.00	    35.355
  11.080	    125.00	    32.275
  11.100	    158.33	    36.324
  11.120	    166.67	    37.268
  11.140	    200.00	    40.825
  11.160	    133.33	    33.333
  11.180	    133.33	    33.333
  11.200	    108.33	    30.046
  11.220	    125.00	    32.275
  11.240	    133.33	    33.333
  11.260	    175.00	    38.188
  11.280	    158.33	    36.324
  11.300	    158.33	    36.324
  11.320	    141.67	    34.359
  11.340	    200.00	    40.825
  11.360	    158.33	    36.324
  11.380	    141.67	    34.359
  11.400	    158.33	    36.324
  11.420	     91.67	    27.639
  11.440	    191.67	    39.965
  11.460	    150.00	    35.355
  11.480	    175.00	    38.188
  11.500	    125.00	    32.275
  11.520	    175.00	    38.188
  11.540	    108.33	    30.046
  11.560	    200.00	    40.825
  11.580	    150.00	    35.355
  11.600	    125.00	    32.275
  11.620	    183.33	    39.087
  11.640	    125.00	    32.275
  11.660	    108.33	    30.046
  11.680	    108.33	    30.046
  11.700	    158.33	    36.324
  11.720	    100.00	    28.868
  11.740	    100.00	    28.868
  11.760	    150.00	    35.355
  11.780	    125.00	    32.275
  11.800	     83.33	    26.352
  11.820	    133.33	    33.333
  11.840	    133.33	    33.333
  11.860	    175.00	    38.188
  11.880	    233.33	    44.096
  11.900	    166.67	    37.268
  11.920	    125.00	    32.275
  11.940	    125.00	    32.275
  11.960	    191.67	    39.965
  11.980	    116.67	    31.180
  12.000	    150.00	    35.355
  12.020	    125.00	    32.275
  12.040	    200.00	    40.825
  12.060	    175.00	    38.188
  12.080	     91.67	    27.639
  12.100	    100.00	    28.868
  12.120	    166.67	    37.268
  12.140	    150.00	    35.355
  12.160	    125.00	    32.275
  12.180	    183.33	    39.087
  12.200	    150.00	    35.355
  12.220	    141.67	    34.359
  12.240	    158.33	    36.324
  12.260	     91.67	    27.639
  12.280	    150.00	    35.355
  12.300	    116.67	    31.180
  12.320	    166.67	    37.268
  12.340	    158.33	    36.324
  12.360	    133.33	    33.333
  12.380	    133.33	    33.333
  12.400	    183.33	    39.087
  12.420	    166.67	    37.268
  12.440	    100.00	    28.868
  12.460	    116.67	    31.180
  12.480	    166.67	    37.268
  12.500	    125.00	    32.275
  12.520	    158.33	    36.324
  12.540	    175.00	    38.188
  12.560	    125.00	    32.275
  12.580	    108.33	    30.046
  12.600	    166.67	    37.268
  12.620	    133.33	    33.333
  12.640	    133.33	    33.333
  12.660	    208.33	    41.667
  12.680	    158.33	    36.324
  12.700	    116.67	    31.180
  12.720	    158.33	    36.324
  12.740	     91.67	    27.639
  12.760	    150.00	    35.355
  12.780	    166.67	    37.268
  12.800	    191.67	    39.965
  12.820	    216.67	    42.492
  12.840	    183.33	    39.087
  12.860	    150.00	    35.355
  12.880	    175.00	    38.188
  12.900	    116.67	    31.180
  12.920	    116.67	    31.180
  12.940	    158.33	    36.324
  12.960	    200.00	    40.825
  12.980	    208.33	    41.667
  13.000	    158.33	    36.324
  13.020	    133.33	    33.333
  13.040	    108.33	    30.046
  13.060	    166.67	    37.268
  13.080	    150.00	    35.355
  13.100	    116.67	    31.180
  13.120	    116.67	    31.180
  13.140	    175.00	    38.188
  13.160	    158.33	    36.324
  13.180	    191.67	    39.965
  13.200	    125.00	    32.275
  13.220	     91.67	    27.639
  13.240	    133.33	    33.333
  13.260	    158.33	    36.324
  13.280	    191.67	    39.965
  13.300	    141.67	    34.359
  13.320	    125.00	    32.275
  13.340	    133.33	    33.333
  13.360	    125.00	    32.275
  13.380	    108.33	    30.046
  13.400	    158.33	    36.324
  13.420	    191.67	    39.965
  13.440	    175.00	    38.188
  13.460	     75.00	    25.000
  13.480	    141.67	    34.359
  13.500	    108.33	    30.046
  13.520	    108.33	    30.046
  13.540	    100.00	    28.868
  13.560	    133.33	    33.333
  13.580	    191.67	    39.965
  13.600	    158.33	    36.324
  13.620	    116.67	    31.180
  13.640	    150.00	    35.355
  13.660	    125.00	    32.275
  13.680	    166.67	    37.268
  13.700	    116.67	    31.180
  13.720	    133.33	    33.333
  13.740	    216.67	    42.492
  13.760	    158.33	    36.324
  13.780	    108.33	    30.046
  13.800	    133.33	    33.333
  13.820	    166.67	    37.268
  13.840	    158.33	    36.324
  13.860	    158.33	    36.324
  13.880	    141.67	    34.359
  13.900	    183.33	    39.087
  13.920	    141.67	    34.359
  13.940	    208.33	    41.667
  13.960	    150.00	    35.355
  13.980	    150.00	    35.355
  14.000	    108.33	    30.046
  14.020	    158.33	    36.324
  14.040	    208.33	    41.667
  14.060	    200.00	    40.825
  14.080	    125.00	    32.275
  14.100	    166.67	    37.268
  14.120	    141.67	    34.359
  14.140	    175.00	    38.188
  14.160	    125.00	    32.275
  14.180	    166.67	    37.268
  14.200	    158.33	    36.324
  14.220	    141.67	    34.359
  14.240	    141.67	    34.359
  14.260	    141.67	    34.359
  14.280	    166.67	    37.268
  14.300	    133.33	    33.333
  14.320	    141.67	    34.359
  14.340	    175.00	    38.188
  14.360	    175.00	    38.188
  14.380	    166.67	    37.268
  14.400	    133.33	    33.333
  14.420	    175.00	    38.188
  14.440	    166.67	    37.268
  14.460	    141.67	    34.359
  14.480	    183.33	    39.087
  14.500	    141.67	    34.359
  14.520	    125.00	    32.275
  14.540	    125.00	    32.275
  14.560	    158.33	    36.324
  14.580	    158.33	    36.324
  14.600	    183.33	    39.087
  14.620	    158.33	    36.324
  14.640	    150.00	    35.355
  14.660	     91.67	    27.639
  14.680	    158.33	    36.324
  14.700	    166.67	    37.268
  14.720	    116.67	    31.180
  14.740	    133.33	    33.333
  14.760	    125.00	    32.275
  14.780	    191.67	    39.965
  14.800	    125.00	    32.275
  14.820	    150.00	    35.355
  14.840	    175.00	    38.188
  14.860	    191.67	    39.965
  14.880	    166.67	    37.268
  14.900	     83.33	    26.352
  14.920	    108.33	    30.046
  14.940	    225.00	    43.301
  14.960	    100.00	    28.868
  14.980	    191.67	    39.965
  15.000	    200.00	    40.825
  15.020	    150.00	    35.355
  15.040	    150.00	    35.355
  15.060	    233.33	    44.096
  15.080	    183.33	    39.087
  15.100	    133.33	    33.333
  15.120	    158.33	    36.324
  15.140	    133.33	    33.333
  15.160	    183.33	    39.087
  15.180	    150.00	    35.355
  15.200	    141.67	    34.359
  15.220	     83.33	    26.352
  15.240	    175.00	    38.188
  15.260	    116.67	    31.180
  15.280	    158.33	    36.324
  15.300	    175.00	    38.188
  15.320	    158.33	    36.324
  15.340	    216.67	    42.492
  15.360	    100.00	    28.868
  15.380	    133.33	    33.333
  15.400	    133.33	    33.333
  15.420	    158.33	    36.324
  15.440	    158.33	    36.324
  15.460	    100.00	    28.868
  15.480	    175.00	    38.188
  15.500	    116.67	    31.180
  15.520	    158.33	    36.324
  15.540	    100.00	    28.868
  15.560	    133.33	    33.333
  15.580	    133.33	    33.333
  15.600	    125.00	    32.275
  15.620	    175.00	    38.188
  15.640	    166.67	    37.268
  15.660	    158.33	    36.324
  15.680	    183.33	    39.087
  15.700	    150.00	    35.355
  15.720	    158.33	    36.324
  15.740	    150.00	    35.355
  15.760	     83.33	    26.352
  15.780	    166.67	    37.268
  15.800	    141.67	    34.359
  15.820	     91.67	    27.639
  15.840	    208.33	    41.667
  15.860	    175.00	    38.188
  15.880	    183.33	    39.087
  15.900	    158.33	    36.324
  15.920	    141.67	    34.359
  15.940	    150.00	    35.355
  15.960	    166.67	    37.268
  15.980	     91.67	    27.639
  16.000	    141.67	    34.359
  16.020	    125.00	    32.275
  16.040	    150.00	    35.355
  16.060	    200.00	    40.825
  16.080	    175.00	    38.188
  16.100	    125.00	    32.275
  16.120	    158.33	    36.324
  16.140	    150.00	    35.355
  16.160	    141.67	    34.359
  16.180	    125.00	    32.275
  16.200	    133.33	    33.333
  16.220	    175.00	    38.188
  16.240	    150.00	    35.355
  16.260	    200.00	    40.825
  16.280	    141.67	    34.359
